Filename	10172024_PEGDA_PEGMEA_6,42_Aerosil380_20_LITFSI-a
Instrument name	DMA0850-00515
Operator	
rundate	10/7/2024
Sample name	mechanical test - PEGDA:PEGMEA 6p42 aer380 20percent LITFSI
Geometry name	Compression Clamp
Procedure name	DMA Conditioning Preload
	DMA Conditioning Temperature
	Strain Ramp Test
proceduresegments	Strain Ramp Test
[step]
Strain Ramp - 1
Step time	Stress	Strain	Temperature	Displacement	Force
min	MPa	%	°C	µm	N
0.01	6.51114e-6	0.490318	30.43	6.94678	2.34034e-4
0.03	1.64233e-5	0.607957	30.43	8.61347	5.90313e-4
0.04	3.15740e-5	0.725578	30.43	10.2799	1.13489e-3
0.06	4.41458e-5	0.843196	30.43	11.9463	1.58676e-3
0.08	5.50603e-5	0.960812	30.42	13.6127	1.97907e-3
0.09	6.60976e-5	1.07844	30.42	15.2792	2.37579e-3
0.11	7.61863e-5	1.19606	30.42	16.9457	2.73842e-3
0.13	9.21384e-5	1.31368	30.42	18.6121	3.31179e-3
0.14	1.06050e-4	1.43130	30.42	20.2785	3.81182e-3
0.16	1.18232e-4	1.54892	30.42	21.9449	4.24968e-3
0.18	1.30528e-4	1.66655	30.42	23.6115	4.69166e-3
0.19	1.42375e-4	1.78417	30.41	25.2779	5.11749e-3
0.21	1.60566e-4	1.90178	30.41	26.9442	5.77134e-3
0.23	1.74538e-4	2.01940	30.41	28.6107	6.27355e-3
0.24	1.88709e-4	2.13703	30.41	30.2773	6.78290e-3
0.26	2.03056e-4	2.25465	30.41	31.9436	7.29859e-3
0.28	2.17123e-4	2.37226	30.41	33.6099	7.80421e-3
0.29	2.36751e-4	2.48989	30.41	35.2765	8.50971e-3
0.31	2.53207e-4	2.60751	30.41	36.9430	9.10121e-3
0.33	2.69049e-4	2.72512	30.41	38.6092	9.67060e-3
0.34	2.85498e-4	2.84275	30.40	40.2758	0.0102618
0.36	3.01759e-4	2.96037	30.40	41.9421	0.0108463
0.38	3.24524e-4	3.07800	30.40	43.6088	0.0116646
0.39	3.45204e-4	3.19561	30.40	45.2750	0.0124079
0.41	3.64252e-4	3.31324	30.40	46.9416	0.0130926
0.43	3.84438e-4	3.43085	30.40	48.6079	0.0138181
0.44	4.05073e-4	3.54848	30.40	50.2745	0.0145598
0.46	4.31534e-4	3.66609	30.40	51.9408	0.0155109
0.48	4.56101e-4	3.78371	30.40	53.6073	0.0163940
0.49	4.79039e-4	3.90134	30.40	55.2737	0.0172184
0.51	5.02698e-4	4.01895	30.39	56.9401	0.0180688
0.53	5.27023e-4	4.13658	30.39	58.6066	0.0189431
0.54	5.57076e-4	4.25419	30.39	60.2730	0.0200234
0.56	5.84770e-4	4.37181	30.39	61.9394	0.0210188
0.58	6.13560e-4	4.48944	30.39	63.6059	0.0220536
0.59	6.42726e-4	4.60705	30.39	65.2722	0.0231020
0.61	6.73200e-4	4.72467	30.39	66.9387	0.0241973
0.63	7.10150e-4	4.84230	30.39	68.6051	0.0255254
0.64	7.46727e-4	4.95991	30.39	70.2715	0.0268401
0.66	7.83608e-4	5.07753	30.39	71.9379	0.0281658
0.68	8.20012e-4	5.19515	30.39	73.6043	0.0294743
0.69	8.62954e-4	5.31278	30.38	75.2709	0.0310177
0.71	9.23631e-4	5.43038	30.38	76.9371	0.0331987
0.73	9.86874e-4	5.54799	30.38	78.6034	0.0354719
0.74	1.05774e-3	5.66563	30.38	80.2700	0.0380192
0.76	1.13643e-3	5.78324	30.38	81.9364	0.0408476
0.78	1.22118e-3	5.90084	30.38	83.6025	0.0438936
0.79	1.31818e-3	6.01847	30.38	85.2690	0.0473802
0.81	1.41730e-3	6.13608	30.38	86.9354	0.0509432
0.83	1.52368e-3	6.25370	30.38	88.6018	0.0547668
0.84	1.64001e-3	6.37131	30.38	90.2681	0.0589480
0.86	1.76622e-3	6.48893	30.38	91.9345	0.0634845
0.88	1.90862e-3	6.60654	30.38	93.6008	0.0686030
0.89	2.06096e-3	6.72415	30.38	95.2671	0.0740787
0.91	2.22186e-3	6.84177	30.38	96.9335	0.0798620
0.93	2.39295e-3	6.95939	30.38	98.5999	0.0860113
0.94	2.57581e-3	7.07700	30.38	100.266	0.0925841
0.96	2.77503e-3	7.19462	30.37	101.933	0.0997450
0.98	2.98380e-3	7.31223	30.37	103.599	0.107249
0.99	3.20463e-3	7.42982	30.37	105.265	0.115186
1.01	3.43849e-3	7.54746	30.37	106.932	0.123592
1.03	3.68823e-3	7.66506	30.37	108.598	0.132569
1.04	3.95657e-3	7.78266	30.37	110.264	0.142214
1.06	4.23682e-3	7.90028	30.37	111.930	0.152287
1.08	4.52826e-3	8.01789	30.37	113.597	0.162762
1.09	4.83492e-3	8.13552	30.37	115.263	0.173785
1.11	5.15305e-3	8.25312	30.37	116.929	0.185220
1.13	5.48756e-3	8.37072	30.37	118.595	0.197243
1.14	5.83341e-3	8.48835	30.37	120.262	0.209674
1.16	6.19024e-3	8.60595	30.37	121.928	0.222500
1.18	6.56599e-3	8.72356	30.37	123.595	0.236006
1.19	6.95951e-3	8.84118	30.37	125.261	0.250150
1.21	7.37746e-3	8.95880	30.37	126.927	0.265173
1.23	7.81159e-3	9.07639	30.37	128.593	0.280777
1.24	8.26265e-3	9.19401	30.37	130.260	0.296990
1.26	8.73438e-3	9.31162	30.37	131.926	0.313946
1.28	9.22546e-3	9.42919	30.37	133.592	0.331597
1.29	9.74710e-3	9.54681	30.37	135.258	0.350347
1.31	0.0102841	9.66442	30.37	136.925	0.369647
1.33	0.0108424	9.78209	30.37	138.592	0.389717
1.34	0.0114241	9.89962	30.37	140.257	0.410626
1.36	0.0120232	10.0173	30.37	141.923	0.432157
1.38	0.0126527	10.1348	30.36	143.589	0.454784
1.39	0.0133008	10.2524	30.36	145.255	0.478079
1.41	0.0139742	10.3701	30.36	146.922	0.502285
1.43	0.0146676	10.4876	30.36	148.587	0.527207
1.44	0.0153846	10.6053	30.36	150.255	0.552981
1.46	0.0161314	10.7229	30.36	151.921	0.579822
1.48	0.0168890	10.8405	30.36	153.586	0.607051
1.49	0.0176681	10.9581	30.36	155.253	0.635055
1.51	0.0184602	11.0757	30.36	156.920	0.663527
1.53	0.0192765	11.1934	30.36	158.586	0.692868
1.54	0.0201141	11.3109	30.36	160.252	0.722976
1.56	0.0209623	11.4285	30.36	161.918	0.753462
1.58	0.0218324	11.5462	30.36	163.585	0.784737
1.59	0.0227117	11.6638	30.36	165.252	0.816343
1.61	0.0236124	11.7813	30.36	166.917	0.848717
1.63	0.0245292	11.8990	30.36	168.584	0.881669
1.64	0.0254554	12.0166	30.36	170.250	0.914962
1.66	0.0263984	12.1342	30.36	171.917	0.948855
1.68	0.0273486	12.2518	30.36	173.583	0.983011
1.69	0.0283174	12.3694	30.36	175.249	1.01783
1.71	0.0292962	12.4870	30.36	176.915	1.05301
1.73	0.0302879	12.6047	30.36	178.582	1.08866
1.74	0.0312882	12.7223	30.36	180.248	1.12461
1.76	0.0323030	12.8398	30.36	181.913	1.16109
1.78	0.0333357	12.9574	30.36	183.580	1.19821
1.79	0.0343781	13.0751	30.36	185.247	1.23568
1.81	0.0354328	13.1927	30.36	186.913	1.27358
1.83	0.0364915	13.3103	30.36	188.579	1.31164
1.84	0.0375742	13.4279	30.36	190.245	1.35055
1.86	0.0386698	13.5456	30.36	191.912	1.38993
1.88	0.0397790	13.6632	30.36	193.579	1.42980
1.89	0.0409024	13.7808	30.36	195.245	1.47018
1.91	0.0420334	13.8984	30.36	196.911	1.51084
1.93	0.0431795	14.0160	30.36	198.577	1.55203
1.94	0.0443355	14.1336	30.36	200.244	1.59358
1.96	0.0455148	14.2512	30.36	201.910	1.63597
1.98	0.0467071	14.3689	30.36	203.577	1.67883
1.99	0.0479075	14.4865	30.36	205.243	1.72197
2.01	0.0491322	14.6040	30.36	206.908	1.76599
2.03	0.0503665	14.7217	30.36	208.575	1.81036
2.04	0.0516283	14.8393	30.36	210.242	1.85571
2.06	0.0528985	14.9569	30.36	211.908	1.90137
2.08	0.0541818	15.0745	30.36	213.574	1.94749
2.09	0.0554869	15.1921	30.36	215.240	1.99440
2.11	0.0567792	15.3097	30.36	216.907	2.04085
2.13	0.0581088	15.4274	30.36	218.573	2.08865
2.14	0.0594642	15.5450	30.36	220.240	2.13736
2.16	0.0608421	15.6625	30.36	221.905	2.18689
2.18	0.0622374	15.7802	30.36	223.572	2.23704
2.19	0.0636482	15.8978	30.36	225.238	2.28775
2.21	0.0650910	16.0154	30.36	226.904	2.33961
2.23	0.0665429	16.1330	30.36	228.571	2.39180
2.24	0.0680252	16.2506	30.36	230.236	2.44508
2.26	0.0695209	16.3682	30.36	231.903	2.49884
2.28	0.0710463	16.4858	30.36	233.569	2.55367
2.29	0.0725830	16.6034	30.36	235.236	2.60890
2.31	0.0741443	16.7211	30.36	236.902	2.66502
2.33	0.0757323	16.8386	30.36	238.568	2.72210
2.34	0.0773261	16.9562	30.36	240.233	2.77939
2.36	0.0789586	17.0738	30.36	241.900	2.83806
2.38	0.0805010	17.1915	30.36	243.568	2.89350
2.39	0.0821341	17.3091	30.36	245.233	2.95220
2.41	0.0838254	17.4267	30.36	246.899	3.01299
2.43	0.0855306	17.5443	30.36	248.565	3.07428
2.44	0.0872689	17.6619	30.36	250.232	3.13677
2.46	0.0890189	17.7795	30.36	251.898	3.19967
2.48	0.0907955	17.8971	30.36	253.565	3.26353
2.49	0.0925839	18.0146	30.36	255.229	3.32781
2.51	0.0943966	18.1323	30.36	256.897	3.39296
2.53	0.0962358	18.2498	30.36	258.561	3.45907
2.54	0.0980934	18.3675	30.36	260.229	3.52584
2.56	0.0999800	18.4851	30.36	261.895	3.59365
2.58	0.101878	18.6027	30.36	263.561	3.66186
2.59	0.103811	18.7203	30.37	265.227	3.73134
2.61	0.105766	18.8380	30.37	266.895	3.80162
2.63	0.107752	18.9556	30.36	268.561	3.87300
2.64	0.109763	19.0731	30.37	270.225	3.94528
2.66	0.111789	19.1907	30.36	271.892	4.01813
2.68	0.113855	19.3083	30.37	273.558	4.09236
2.69	0.115933	19.4259	30.37	275.224	4.16705
2.71	0.118048	19.5435	30.37	276.891	4.24307
2.73	0.120173	19.6612	30.37	278.558	4.31947
2.74	0.122329	19.7788	30.37	280.224	4.39695
2.76	0.124513	19.8964	30.37	281.890	4.47544
2.78	0.126715	20.0139	30.37	283.555	4.55461
2.79	0.128961	20.1315	30.37	285.221	4.63533
2.81	0.131213	20.2492	30.37	286.889	4.71627
2.83	0.133505	20.3668	30.37	288.555	4.79865
2.84	0.135814	20.4844	30.37	290.221	4.88166
2.86	0.138158	20.6020	30.37	291.887	4.96590
2.88	0.140526	20.7195	30.37	293.552	5.05103
2.89	0.142911	20.8372	30.37	295.219	5.13673
2.91	0.145326	20.9548	30.37	296.885	5.22356
2.93	0.147689	21.0724	30.37	298.551	5.30850
2.94	0.150159	21.1900	30.37	300.218	5.39727
2.96	0.152654	21.3076	30.37	301.884	5.48695
2.98	0.155186	21.4252	30.37	303.550	5.57794
2.99	0.157751	21.5428	30.37	305.216	5.67016
3.01	0.160328	21.6604	30.37	306.882	5.76277
3.03	0.162962	21.7780	30.37	308.549	5.85746
3.04	0.165609	21.8956	30.37	310.215	5.95261
3.06	0.168203	22.0133	30.37	311.882	6.04583
3.08	0.170874	22.1309	30.37	313.548	6.14185
3.09	0.173619	22.2484	30.37	315.213	6.24050
3.11	0.176404	22.3660	30.38	316.879	6.34062
3.13	0.179219	22.4836	30.38	318.546	6.44180
3.14	0.182083	22.6012	30.38	320.212	6.54475
3.16	0.184931	22.7189	30.38	321.878	6.64712
3.18	0.187872	22.8363	30.38	323.542	6.75280
3.19	0.190854	22.9539	30.38	325.209	6.86001
3.21	0.193890	23.0716	30.38	326.876	6.96913
3.23	0.196955	23.1892	30.38	328.542	7.07929
3.24	0.200060	23.3067	30.38	330.207	7.19089
3.26	0.203209	23.4244	30.38	331.874	7.30408
3.28	0.206311	23.5420	30.38	333.540	7.41557
3.29	0.209492	23.6596	30.38	335.207	7.52991
3.31	0.212701	23.7772	30.38	336.872	7.64524
3.33	0.215983	23.8948	30.38	338.538	7.76322
3.34	0.219302	24.0124	30.38	340.205	7.88252
3.36	0.222660	24.1300	30.38	341.871	8.00322
3.38	0.226064	24.2476	30.38	343.537	8.12558
3.39	0.229496	24.3651	30.38	345.202	8.24892
3.41	0.232980	24.4828	30.38	346.869	8.37415
3.43	0.236489	24.6003	30.38	348.535	8.50030
3.44	0.240083	24.7179	30.38	350.201	8.62945
3.46	0.243701	24.8355	30.38	351.867	8.75951
3.48	0.247386	24.9530	30.39	353.532	8.89197
3.49	0.251117	25.0707	30.39	355.198	9.02608
3.51	0.254834	25.1883	30.39	356.866	9.15966
3.53	0.258598	25.3058	30.39	358.530	9.29495
3.54	0.262428	25.4235	30.39	360.197	9.43264
3.56	0.266336	25.5410	30.39	361.863	9.57312
3.58	0.270274	25.6586	30.39	363.529	9.71465
3.59	0.274306	25.7761	30.39	365.194	9.85956
3.61	0.278378	25.8938	30.39	366.860	10.0059
3.63	0.282500	26.0113	30.39	368.525	10.1541
3.64	0.286674	26.1290	30.39	370.193	10.3041
3.66	0.290799	26.2467	30.39	371.860	10.4524
3.68	0.294924	26.3643	30.39	373.526	10.6006
3.69	0.298985	26.4820	30.39	375.194	10.7466
3.71	0.301426	26.6006	30.39	376.874	10.8344
3.73	0.305134	26.7175	30.39	378.530	10.9677
3.74	0.309080	26.8345	30.40	380.189	11.1095
3.76	0.313448	26.9521	30.40	381.855	11.2665
3.78	0.317910	27.0697	30.40	383.521	11.4269
3.79	0.322458	27.1873	30.40	385.187	11.5903
3.81	0.327007	27.3049	30.40	386.854	11.7538
3.83	0.331593	27.4225	30.40	388.518	11.9187
3.84	0.336277	27.5401	30.40	390.185	12.0870
3.86	0.341072	27.6576	30.40	391.850	12.2594
3.88	0.345933	27.7752	30.40	393.516	12.4341
3.89	0.350881	27.8928	30.40	395.182	12.6119
3.91	0.355881	28.0104	30.40	396.849	12.7917
3.93	0.360915	28.1279	30.40	398.513	12.9726
3.94	0.366057	28.2456	30.40	400.180	13.1574
3.96	0.371212	28.3630	30.40	401.845	13.3427
3.98	0.376484	28.4807	30.40	403.511	13.5322
3.99	0.381763	28.5983	30.40	405.177	13.7220
4.01	0.387146	28.7160	30.41	406.845	13.9155
4.03	0.392044	28.8338	30.41	408.515	14.0915
4.04	0.397276	28.9509	30.41	410.174	14.2796
4.06	0.402833	29.0686	30.41	411.841	14.4793
4.08	0.408430	29.1861	30.41	413.506	14.6805
4.09	0.414149	29.3038	30.41	415.173	14.8860
4.11	0.419978	29.4213	30.41	416.837	15.0956
4.13	0.425994	29.5388	30.41	418.503	15.3118
4.14	0.432024	29.6564	30.41	420.168	15.5285
4.16	0.438203	29.7738	30.41	421.832	15.7506
4.18	0.444438	29.8914	30.41	423.498	15.9748
4.19	0.450815	30.0090	30.41	425.164	16.2040
4.21	0.457280	30.1266	30.41	426.830	16.4363
4.23	0.463799	30.2442	30.41	428.497	16.6707
4.24	0.470322	30.3618	30.41	430.163	16.9051
4.26	0.476993	30.4792	30.42	431.827	17.1449
4.28	0.483795	30.5968	30.42	433.493	17.3894
4.29	0.490617	30.7143	30.42	435.157	17.6346
4.31	0.497592	30.8320	30.42	436.824	17.8853
4.33	0.504593	30.9496	30.42	438.491	18.1369
4.34	0.511722	31.0671	30.42	440.155	18.3932
4.36	0.518917	31.1848	30.42	441.822	18.6518
4.38	0.526142	31.3023	30.42	443.488	18.9115
4.39	0.533212	31.4201	30.42	445.157	19.1656
4.41	0.540321	31.5375	30.42	446.820	19.4211
4.43	0.547561	31.6552	30.42	448.488	19.6814
4.44	0.554661	31.7729	30.42	450.155	19.9366
4.46	0.557978	31.8930	30.42	451.856	20.0558
4.48	0.557977	32.0088	30.42	453.497	20.0558
4.49	0.557977	32.1261	30.42	455.159	20.0557
4.51	0.557976	32.2436	30.43	456.823	20.0557
4.53	0.557976	32.3185	30.43	457.885	20.0557
4.54	0.557976	32.4528	30.43	459.788	20.0557
4.56	0.557975	32.5981	30.43	461.846	20.0557
4.58	0.557974	32.7150	30.43	463.503	20.0557
4.59	0.557974	32.8331	30.43	465.176	20.0556
4.61	0.557974	32.9294	30.43	466.540	20.0556
4.63	0.557973	32.9965	30.43	467.491	20.0556
4.64	0.557973	33.0805	30.43	468.680	20.0556
4.66	0.557973	33.1739	30.43	470.004	20.0556
4.68	0.557972	33.2249	30.43	470.727	20.0556
4.69	0.557972	33.2648	30.43	471.292	20.0556
4.71	0.557972	33.2957	30.44	471.729	20.0556
4.73	0.557972	33.3243	30.44	472.135	20.0556
4.74	0.557972	33.3500	30.44	472.499	20.0556
4.76	0.557972	33.3759	30.44	472.866	20.0556
4.78	0.557972	33.4005	30.44	473.215	20.0556
4.79	0.557972	33.4226	30.44	473.527	20.0556
4.81	0.557972	33.4438	30.44	473.828	20.0556
4.83	0.557971	33.4666	30.44	474.152	20.0556
4.84	0.557971	33.4950	30.44	474.553	20.0555
4.86	0.557971	33.5168	30.44	474.863	20.0555
4.88	0.557971	33.5422	30.44	475.222	20.0555
4.89	0.557971	33.6338	30.44	476.520	20.0555
4.91	0.557970	33.7910	30.44	478.748	20.0555
4.93	0.557970	33.8274	30.45	479.263	20.0555
4.94	0.557970	33.8567	30.45	479.678	20.0555
4.96	0.557970	33.8822	30.45	480.040	20.0555
4.98	0.557970	33.9054	30.45	480.369	20.0555
4.99	0.557970	33.9264	30.45	480.666	20.0555
5.01	0.557969	33.9461	30.45	480.945	20.0555
5.03	0.557969	33.9639	30.45	481.197	20.0555
5.04	0.557969	33.9803	30.45	481.429	20.0555
5.06	0.557969	33.9962	30.45	481.655	20.0555
5.08	0.557969	34.0109	30.45	481.863	20.0555
5.09	0.557969	34.0251	30.45	482.064	20.0555
5.11	0.557969	34.0387	30.46	482.257	20.0555
5.13	0.557969	34.0517	30.46	482.441	20.0555
5.14	0.557969	34.0633	30.46	482.606	20.0555
5.16	0.557969	34.0757	30.46	482.781	20.0555
5.18	0.557969	34.0879	30.46	482.954	20.0555
5.19	0.557969	34.1057	30.46	483.206	20.0555
5.21	0.557969	34.1218	30.46	483.434	20.0555
5.23	0.557969	34.1328	30.46	483.590	20.0555
5.24	0.557969	34.1438	30.46	483.746	20.0555
5.26	0.557969	34.1549	30.46	483.904	20.0555
5.28	0.557969	34.1652	30.46	484.048	20.0555
5.29	0.557969	34.1744	30.46	484.179	20.0554
5.31	0.557969	34.1839	30.47	484.314	20.0554
5.33	0.557968	34.1937	30.47	484.453	20.0554
5.34	0.557968	34.2150	30.47	484.754	20.0554
5.36	0.557968	34.2281	30.47	484.940	20.0554
5.38	0.557968	34.2385	30.47	485.088	20.0554
5.39	0.557968	34.2479	30.47	485.221	20.0554
5.41	0.557968	34.2568	30.47	485.347	20.0554
5.43	0.557968	34.2655	30.47	485.470	20.0554
5.44	0.557968	34.2738	30.48	485.587	20.0554
5.46	0.557968	34.2819	30.48	485.702	20.0554
5.48	0.557968	34.2902	30.48	485.820	20.0554
5.49	0.557968	34.2975	30.48	485.923	20.0554
5.51	0.557968	34.3051	30.48	486.031	20.0554
5.53	0.557968	34.3126	30.48	486.137	20.0554
5.54	0.557968	34.3199	30.48	486.241	20.0554
5.56	0.557968	34.3269	30.48	486.339	20.0554
5.58	0.557968	34.3341	30.48	486.442	20.0554
5.59	0.557968	34.3413	30.48	486.543	20.0554
5.61	0.557968	34.3485	30.48	486.647	20.0554
5.63	0.557968	34.3553	30.48	486.742	20.0554
5.64	0.557968	34.3620	30.48	486.837	20.0554
5.66	0.557968	34.3686	30.48	486.930	20.0554
5.68	0.557968	34.3755	30.49	487.028	20.0554
5.69	0.557968	34.3822	30.49	487.124	20.0554
5.71	0.557968	34.3891	30.49	487.222	20.0554
5.73	0.557968	34.3958	30.49	487.316	20.0554
5.74	0.557968	34.4029	30.49	487.416	20.0554
5.76	0.557968	34.4102	30.49	487.520	20.0554
5.78	0.557968	34.4161	30.49	487.603	20.0554
5.79	0.557968	34.4228	30.49	487.698	20.0554
5.81	0.557968	34.4286	30.49	487.780	20.0554
5.83	0.557967	34.4363	30.49	487.890	20.0554
5.84	0.557967	34.4448	30.50	488.010	20.0554
5.86	0.557967	34.4577	30.50	488.193	20.0554
5.88	0.557967	34.4829	30.50	488.550	20.0554
5.89	0.557967	34.5052	30.50	488.866	20.0554
5.91	0.557967	34.5186	30.50	489.056	20.0554
5.93	0.557967	34.5257	30.50	489.157	20.0554
5.94	0.557967	34.5312	30.50	489.234	20.0554
5.96	0.557967	34.5406	30.50	489.367	20.0554
5.98	0.557967	34.5469	30.50	489.457	20.0554
5.99	0.557967	34.5525	30.50	489.537	20.0554
6.01	0.557967	34.5578	30.50	489.611	20.0554
6.03	0.557967	34.5642	30.50	489.703	20.0554
6.04	0.557967	34.5699	30.51	489.782	20.0554
6.06	0.557967	34.5755	30.51	489.862	20.0554
6.08	0.557967	34.5804	30.51	489.931	20.0554
6.09	0.557967	34.5848	30.51	489.994	20.0554
6.11	0.557967	34.5891	30.51	490.055	20.0554
6.13	0.557967	34.5941	30.51	490.126	20.0554
6.14	0.557967	34.5979	30.51	490.179	20.0554
6.16	0.557967	34.6014	30.51	490.229	20.0554
6.18	0.557967	34.6048	30.52	490.277	20.0554
6.19	0.557967	34.6087	30.52	490.332	20.0554
6.21	0.557967	34.6122	30.52	490.381	20.0554
6.23	0.557967	34.6150	30.52	490.422	20.0554
6.24	0.557967	34.6178	30.52	490.461	20.0554
6.26	0.557967	34.6211	30.52	490.508	20.0554
6.28	0.557967	34.6249	30.52	490.562	20.0554
6.29	0.557967	34.6275	30.52	490.598	20.0554
6.31	0.557967	34.6308	30.52	490.645	20.0554
6.33	0.557967	34.6332	30.52	490.680	20.0554
6.34	0.557967	34.6365	30.52	490.727	20.0554
6.36	0.557967	34.6390	30.53	490.762	20.0554
6.38	0.557967	34.6408	30.53	490.787	20.0554
6.39	0.557967	34.6439	30.53	490.831	20.0554
6.41	0.557967	34.6471	30.53	490.876	20.0554
6.43	0.557967	34.6489	30.53	490.902	20.0554
6.44	0.557967	34.6519	30.53	490.944	20.0554
6.46	0.557967	34.6553	30.53	490.993	20.0554
6.48	0.557967	34.6564	30.53	491.009	20.0554
6.49	0.557967	34.6594	30.53	491.050	20.0554
6.51	0.557967	34.6626	30.53	491.096	20.0554
6.53	0.557967	34.6647	30.54	491.126	20.0554
6.54	0.557967	34.6670	30.54	491.159	20.0554
6.56	0.557967	34.6700	30.54	491.201	20.0554
6.58	0.557967	34.6724	30.54	491.235	20.0554
6.59	0.557966	34.6748	30.54	491.269	20.0554
6.61	0.557966	34.6776	30.54	491.308	20.0554
6.63	0.557966	34.6788	30.54	491.326	20.0554
6.64	0.557966	34.6825	30.54	491.378	20.0554
6.66	0.557966	34.6854	30.54	491.419	20.0554
6.68	0.557966	34.6869	30.54	491.440	20.0554
6.69	0.557966	34.6901	30.54	491.486	20.0554
6.71	0.557966	34.6928	30.55	491.524	20.0554
6.73	0.557966	34.6948	30.55	491.553	20.0554
6.74	0.557966	34.6978	30.55	491.595	20.0554
6.76	0.557966	34.7082	30.55	491.742	20.0554
6.78	0.557966	34.7437	30.55	492.245	20.0554
6.79	0.557966	34.7479	30.55	492.304	20.0554
6.81	0.557966	34.7513	30.55	492.353	20.0554
6.83	0.557966	34.7544	30.55	492.397	20.0554
6.84	0.557966	34.7569	30.55	492.432	20.0554
6.86	0.557966	34.7597	30.56	492.471	20.0554
6.88	0.557966	34.7626	30.56	492.513	20.0554
6.89	0.557966	34.7639	30.56	492.532	20.0554
6.91	0.557966	34.7672	30.56	492.577	20.0554
6.93	0.557966	34.7692	30.56	492.607	20.0554
6.94	0.557966	34.7710	30.56	492.632	20.0554
6.96	0.557966	34.7748	30.56	492.686	20.0554
6.98	0.557966	34.7758	30.56	492.700	20.0554
6.99	0.557966	34.7784	30.56	492.737	20.0554
7.01	0.557966	34.7794	30.57	492.751	20.0554
7.03	0.557966	34.7826	30.57	492.796	20.0554
7.04	0.557966	34.7832	30.57	492.805	20.0554
7.06	0.557966	34.7864	30.57	492.851	20.0554
7.08	0.557966	34.7874	30.57	492.864	20.0554
7.09	0.557966	34.7903	30.57	492.905	20.0554
7.11	0.557966	34.7906	30.57	492.910	20.0554
7.13	0.557966	34.7941	30.57	492.959	20.0554
7.14	0.557966	34.7949	30.57	492.971	20.0554
7.16	0.557966	34.7979	30.58	493.014	20.0554
7.18	0.557966	34.7979	30.58	493.014	20.0554
7.19	0.557966	34.8013	30.58	493.061	20.0554
7.21	0.557966	34.8018	30.58	493.068	20.0554
7.23	0.557966	34.8043	30.58	493.104	20.0554
7.24	0.557966	34.8060	30.58	493.128	20.0554
7.26	0.557966	34.8089	30.58	493.168	20.0554
7.28	0.557966	34.8096	30.58	493.178	20.0554
7.29	0.557966	34.8106	30.58	493.193	20.0554
7.31	0.557966	34.8134	30.59	493.232	20.0554
7.33	0.557966	34.8134	30.59	493.232	20.0554
7.34	0.557966	34.8172	30.59	493.286	20.0554
7.36	0.557966	34.8174	30.59	493.289	20.0554

