Filename	10172024_PEGDA_PEGMEA_15_Aerosil380_20_LITFSI
Instrument name	DMA0850-00515
Operator	
rundate	10/7/2024
Sample name	mechanical test - PEGDA:PEGMEA 15p aer380 20percent LITFSI
Geometry name	Compression Clamp
Procedure name	DMA Conditioning Preload
	DMA Conditioning Temperature
	Strain Ramp Test
proceduresegments	Strain Ramp Test
[step]
Strain Ramp - 1
Step time	Stress	Strain	Temperature	Force	Displacement
min	MPa	%	°C	N	µm
0.01	3.59828e-5	0.418049	30.29	1.15531e-3	7.34223
0.03	1.04405e-4	0.512940	30.28	3.35218e-3	9.00882
0.04	1.79278e-4	0.607820	30.28	5.75614e-3	10.6752
0.06	2.60276e-4	0.702694	30.28	8.35678e-3	12.3415
0.08	3.53258e-4	0.797577	30.28	0.0113422	14.0079
0.09	4.48974e-4	0.892459	30.28	0.0144154	15.6743
0.11	5.49079e-4	0.987337	30.27	0.0176295	17.3407
0.13	6.57977e-4	1.08222	30.27	0.0211259	19.0071
0.14	7.72578e-4	1.17710	30.27	0.0248054	20.6735
0.16	8.97126e-4	1.27198	30.27	0.0288043	22.3399
0.18	1.02569e-3	1.36686	30.27	0.0329322	24.0062
0.19	1.16198e-3	1.46174	30.26	0.0373080	25.6727
0.21	1.30772e-3	1.55662	30.26	0.0419875	27.3390
0.23	1.46055e-3	1.65149	30.26	0.0468945	29.0053
0.24	1.62413e-3	1.74638	30.26	0.0521465	30.6718
0.26	1.79216e-3	1.84126	30.26	0.0575417	32.3383
0.28	1.96703e-3	1.93613	30.26	0.0631563	34.0045
0.29	2.15268e-3	2.03101	30.25	0.0691169	35.6708
0.31	2.34613e-3	2.12590	30.25	0.0753281	37.3373
0.33	2.55618e-3	2.22077	30.25	0.0820723	39.0036
0.34	2.77064e-3	2.31564	30.24	0.0889578	40.6699
0.36	2.99321e-3	2.41053	30.24	0.0961040	42.3364
0.38	3.22562e-3	2.50540	30.24	0.103566	44.0026
0.39	3.46919e-3	2.60028	30.24	0.111386	45.6691
0.41	3.73013e-3	2.69516	30.24	0.119765	47.3354
0.43	3.99296e-3	2.79004	30.23	0.128203	49.0018
0.44	4.26743e-3	2.88492	30.23	0.137016	50.6681
0.46	4.54907e-3	2.97980	30.23	0.146059	52.3345
0.48	4.84211e-3	3.07468	30.22	0.155467	54.0008
0.49	5.15605e-3	3.16956	30.22	0.165547	55.6673
0.51	5.47523e-3	3.26443	30.22	0.175795	57.3335
0.53	5.80716e-3	3.35930	30.22	0.186453	58.9998
0.54	6.14769e-3	3.45419	30.22	0.197386	60.6662
0.56	6.50100e-3	3.54907	30.21	0.208730	62.3327
0.58	6.86941e-3	3.64395	30.21	0.220558	63.9990
0.59	7.24102e-3	3.73883	30.21	0.232490	65.6654
0.61	7.62693e-3	3.83370	30.21	0.244881	67.3317
0.63	8.01989e-3	3.92857	30.20	0.257497	68.9978
0.64	8.42743e-3	4.02345	30.20	0.270583	70.6642
0.66	8.84825e-3	4.11834	30.20	0.284094	72.3308
0.68	9.27747e-3	4.21321	30.19	0.297875	73.9971
0.69	9.71907e-3	4.30809	30.19	0.312054	75.6634
0.71	0.0101705	4.40297	30.19	0.326549	77.3298
0.73	0.0106420	4.49784	30.19	0.341687	78.9961
0.74	0.0111266	4.59273	30.18	0.357245	80.6626
0.76	0.0116231	4.68759	30.18	0.373186	82.3286
0.78	0.0121294	4.78248	30.18	0.389443	83.9951
0.79	0.0126501	4.87736	30.18	0.406162	85.6616
0.81	0.0131880	4.97221	30.17	0.423431	87.3273
0.83	0.0137385	5.06710	30.17	0.441108	88.9939
0.84	0.0142995	5.16198	30.17	0.459118	90.6604
0.86	0.0148707	5.25686	30.16	0.477460	92.3268
0.88	0.0154567	5.35174	30.16	0.496274	93.9932
0.89	0.0160567	5.44661	30.16	0.515539	95.6593
0.91	0.0166713	5.54149	30.15	0.535270	97.3258
0.93	0.0172960	5.63638	30.15	0.555330	98.9923
0.94	0.0179259	5.73124	30.15	0.575552	100.658
0.96	0.0185590	5.82613	30.15	0.595881	102.325
0.98	0.0192116	5.92100	30.15	0.616833	103.991
0.99	0.0198747	6.01587	30.15	0.638124	105.657
1.01	0.0205452	6.11076	30.14	0.659653	107.324
1.03	0.0212208	6.20564	30.14	0.681343	108.990
1.04	0.0219087	6.30053	30.14	0.703429	110.657
1.06	0.0226024	6.39540	30.14	0.725702	112.323
1.08	0.0233114	6.49027	30.13	0.748467	113.989
1.09	0.0240275	6.58515	30.13	0.771460	115.656
1.11	0.0247502	6.68003	30.13	0.794665	117.322
1.13	0.0254871	6.77491	30.12	0.818324	118.988
1.14	0.0262274	6.86979	30.12	0.842091	120.655
1.16	0.0269910	6.96467	30.12	0.866609	122.321
1.18	0.0277636	7.05955	30.12	0.891417	123.988
1.19	0.0285492	7.15443	30.11	0.916639	125.654
1.21	0.0293449	7.24930	30.11	0.942187	127.320
1.23	0.0301529	7.34419	30.11	0.968131	128.987
1.24	0.0309915	7.43908	30.11	0.995054	130.653
1.26	0.0318350	7.53392	30.11	1.02214	132.319
1.28	0.0326931	7.62882	30.10	1.04969	133.986
1.29	0.0335653	7.72370	30.10	1.07769	135.652
1.31	0.0344548	7.81854	30.10	1.10625	137.318
1.33	0.0353660	7.91345	30.10	1.13551	138.985
1.34	0.0362807	8.00829	30.09	1.16488	140.650
1.36	0.0372168	8.10318	30.09	1.19493	142.317
1.38	0.0381687	8.19803	30.09	1.22549	143.983
1.39	0.0391565	8.29289	30.09	1.25721	145.649
1.41	0.0401631	8.38782	30.09	1.28953	147.316
1.43	0.0411964	8.48267	30.08	1.32271	148.982
1.44	0.0422599	8.57753	30.08	1.35685	150.648
1.46	0.0433361	8.67240	30.08	1.39141	152.314
1.48	0.0444411	8.76730	30.08	1.42689	153.981
1.49	0.0455640	8.86216	30.08	1.46294	155.647
1.51	0.0467042	8.95704	30.07	1.49955	157.313
1.53	0.0478513	9.05196	30.07	1.53638	158.981
1.54	0.0489492	9.14677	30.07	1.57163	160.646
1.56	0.0501495	9.24167	30.07	1.61017	162.312
1.58	0.0513604	9.33655	30.07	1.64905	163.979
1.59	0.0525960	9.43139	30.07	1.68872	165.644
1.61	0.0538501	9.52626	30.06	1.72898	167.311
1.63	0.0551241	9.62113	30.06	1.76989	168.977
1.64	0.0564302	9.71603	30.06	1.81182	170.644
1.66	0.0577522	9.81092	30.06	1.85427	172.310
1.68	0.0591024	9.90579	30.06	1.89762	173.976
1.69	0.0604658	10.0007	30.06	1.94140	175.643
1.71	0.0618479	10.0955	30.05	1.98577	177.308
1.73	0.0632450	10.1904	30.05	2.03063	178.975
1.74	0.0646759	10.2853	30.05	2.07657	180.641
1.76	0.0661356	10.3802	30.05	2.12344	182.308
1.78	0.0676068	10.4750	30.05	2.17067	183.974
1.79	0.0691086	10.5699	30.05	2.21889	185.640
1.81	0.0706276	10.6648	30.05	2.26767	187.306
1.83	0.0721714	10.7596	30.04	2.31723	188.972
1.84	0.0737144	10.8545	30.04	2.36677	190.639
1.86	0.0752841	10.9494	30.04	2.41717	192.305
1.88	0.0768844	11.0443	30.04	2.46856	193.971
1.89	0.0784977	11.1391	30.04	2.52035	195.638
1.91	0.0801368	11.2340	30.04	2.57298	197.304
1.93	0.0817921	11.3288	30.04	2.62613	198.970
1.94	0.0834791	11.4238	30.03	2.68029	200.637
1.96	0.0851996	11.5186	30.03	2.73553	202.303
1.98	0.0869399	11.6135	30.03	2.79141	203.969
1.99	0.0887348	11.7084	30.03	2.84904	205.635
2.01	0.0905554	11.8032	30.03	2.90749	207.301
2.03	0.0923975	11.8981	30.03	2.96664	208.967
2.04	0.0942833	11.9929	30.03	3.02719	210.633
2.06	0.0962083	12.0878	30.02	3.08899	212.299
2.08	0.0981617	12.1827	30.02	3.15171	213.966
2.09	0.100126	12.2775	30.02	3.21479	215.632
2.11	0.102132	12.3724	30.02	3.27919	217.298
2.13	0.104157	12.4673	30.02	3.34420	218.965
2.14	0.106230	12.5622	30.02	3.41077	220.630
2.16	0.108199	12.6571	30.02	3.47399	222.298
2.18	0.110214	12.7519	30.02	3.53867	223.963
2.19	0.112341	12.8467	30.02	3.60696	225.628
2.21	0.114505	12.9417	30.02	3.67645	227.296
2.23	0.116715	13.0365	30.01	3.74742	228.961
2.24	0.118942	13.1314	30.01	3.81892	230.628
2.26	0.121211	13.2262	30.01	3.89175	232.294
2.28	0.123505	13.3211	30.01	3.96542	233.960
2.29	0.125790	13.4160	30.01	4.03877	235.626
2.31	0.128120	13.5109	30.01	4.11359	237.293
2.33	0.130475	13.6057	30.01	4.18921	238.958
2.34	0.132903	13.7005	30.01	4.26715	240.624
2.36	0.135334	13.7954	30.01	4.34521	242.291
2.38	0.137808	13.8903	30.00	4.42465	243.957
2.39	0.140316	13.9852	30.00	4.50517	245.624
2.41	0.142865	14.0800	30.00	4.58701	247.288
2.43	0.145444	14.1749	30.00	4.66982	248.955
2.44	0.148026	14.2698	30.00	4.75272	250.621
2.46	0.150669	14.3646	30.00	4.83758	252.287
2.48	0.153321	14.4596	30.00	4.92272	253.955
2.49	0.155976	14.5545	30.00	5.00796	255.621
2.51	0.158578	14.6494	30.00	5.09152	257.289
2.53	0.161305	14.7441	30.00	5.17908	258.952
2.54	0.164083	14.8390	30.00	5.26828	260.619
2.56	0.166886	14.9339	30.00	5.35826	262.285
2.58	0.169675	15.0287	30.00	5.44782	263.951
2.59	0.172509	15.1236	30.00	5.53882	265.618
2.61	0.175436	15.2185	30.00	5.63278	267.283
2.63	0.178394	15.3134	30.00	5.72776	268.950
2.64	0.181348	15.4083	29.99	5.82261	270.617
2.66	0.184357	15.5030	30.00	5.91921	272.282
2.68	0.187415	15.5979	30.00	6.01740	273.947
2.69	0.190537	15.6928	30.00	6.11764	275.615
2.71	0.193679	15.7876	30.00	6.21851	277.280
2.73	0.196894	15.8825	30.00	6.32176	278.946
2.74	0.200137	15.9774	30.00	6.42588	280.613
2.76	0.203426	16.0722	29.99	6.53147	282.278
2.78	0.206760	16.1671	29.99	6.63853	283.945
2.79	0.210125	16.2620	29.99	6.74656	285.611
2.81	0.213555	16.3569	29.99	6.85668	287.278
2.83	0.216995	16.4517	29.99	6.96715	288.943
2.84	0.220492	16.5466	29.99	7.07943	290.609
2.86	0.224005	16.6415	29.99	7.19221	292.276
2.88	0.227553	16.7363	29.99	7.30612	293.941
2.89	0.231134	16.8312	29.99	7.42111	295.608
2.91	0.234571	16.9262	29.99	7.53145	297.277
2.93	0.237976	17.0209	29.99	7.64079	298.940
2.94	0.241631	17.1158	29.99	7.75813	300.606
2.96	0.245302	17.2106	29.99	7.87600	302.272
2.98	0.249103	17.3055	29.99	7.99803	303.938
2.99	0.252975	17.4003	29.99	8.12236	305.604
3.01	0.256880	17.4952	29.99	8.24775	307.270
3.03	0.260830	17.5901	29.99	8.37456	308.936
3.04	0.264755	17.6850	29.99	8.50058	310.603
3.06	0.268687	17.7798	29.99	8.62684	312.268
3.08	0.272789	17.8746	29.99	8.75855	313.934
3.09	0.276886	17.9695	29.99	8.89008	315.601
3.11	0.281068	18.0643	29.99	9.02435	317.265
3.13	0.285291	18.1592	29.99	9.15993	318.933
3.14	0.289563	18.2541	29.99	9.29709	320.598
3.16	0.293880	18.3490	29.99	9.43572	322.265
3.18	0.298220	18.4438	29.99	9.57504	323.930
3.19	0.302630	18.5387	29.99	9.71666	325.597
3.21	0.307054	18.6336	29.99	9.85868	327.263
3.23	0.311568	18.7284	29.99	10.0036	328.929
3.24	0.316002	18.8234	29.99	10.1460	330.598
3.26	0.320447	18.9181	29.99	10.2887	332.260
3.28	0.325091	19.0130	29.99	10.4378	333.927
3.29	0.329778	19.1078	29.99	10.5883	335.592
3.31	0.334551	19.2027	29.99	10.7415	337.259
3.33	0.339351	19.2975	29.99	10.8957	338.925
3.34	0.344242	19.3924	29.99	11.0527	340.591
3.36	0.349124	19.4872	29.99	11.2095	342.256
3.38	0.354136	19.5821	29.99	11.3704	343.923
3.39	0.359062	19.6772	29.99	11.5285	345.592
3.41	0.363743	19.7722	29.99	11.6788	347.262
3.43	0.366559	19.8678	29.99	11.7692	348.940
3.44	0.370826	19.9617	29.99	11.9062	350.590
3.46	0.375623	20.0566	29.99	12.0603	352.257
3.48	0.380240	20.1518	29.99	12.2085	353.928
3.49	0.378426	20.2508	29.99	12.1502	355.667
3.51	0.379937	20.3412	29.99	12.1988	357.254
3.53	0.385035	20.4360	29.99	12.3625	358.920
3.54	0.390277	20.5308	29.99	12.5308	360.584
3.56	0.395648	20.6256	29.99	12.7032	362.250
3.58	0.401130	20.7205	29.99	12.8792	363.916
3.59	0.406370	20.8156	29.99	13.0475	365.587
3.61	0.411550	20.9102	29.99	13.2138	367.249
3.63	0.417104	21.0051	29.99	13.3921	368.914
3.64	0.422789	21.0999	29.99	13.5746	370.580
3.66	0.428489	21.1948	29.99	13.7576	372.246
3.68	0.434173	21.2899	29.99	13.9401	373.916
3.69	0.439694	21.3845	29.99	14.1174	375.579
3.71	0.445561	21.4793	29.99	14.3058	377.244
3.73	0.451513	21.5742	29.99	14.4969	378.911
3.74	0.457501	21.6691	29.99	14.6891	380.576
3.76	0.463610	21.7639	29.99	14.8853	382.242
3.78	0.469707	21.8588	29.99	15.0811	383.908
3.79	0.475912	21.9536	29.99	15.2803	385.573
3.81	0.482149	22.0485	29.99	15.4805	387.240
3.83	0.488438	22.1434	29.99	15.6825	388.906
3.84	0.494743	22.2383	29.99	15.8849	390.573
3.86	0.500937	22.3330	29.99	16.0838	392.237
3.88	0.507362	22.4280	29.99	16.2900	393.905
3.89	0.513768	22.5228	29.99	16.4957	395.570
3.91	0.520340	22.6176	29.99	16.7067	397.235
3.93	0.526957	22.7125	29.99	16.9192	398.901
3.94	0.533582	22.8074	29.99	17.1319	400.569
3.96	0.540190	22.9023	29.99	17.3441	402.235
3.98	0.546962	22.9971	29.99	17.5615	403.899
3.99	0.553696	23.0921	29.99	17.7777	405.568
4.01	0.560221	23.1870	29.99	17.9872	407.235
4.03	0.567035	23.2817	29.99	18.2060	408.899
4.04	0.573960	23.3765	30.00	18.4283	410.563
4.06	0.580984	23.4714	29.99	18.6539	412.230
4.08	0.588016	23.5662	30.00	18.8796	413.895
4.09	0.595195	23.6611	30.00	19.1101	415.562
4.11	0.602321	23.7559	30.00	19.3389	417.228
4.13	0.609403	23.8511	30.00	19.5663	418.900
4.14	0.611873	23.9485	30.00	19.6456	420.609
4.16	0.616640	24.0409	30.00	19.7987	422.233
4.18	0.623012	24.1357	30.00	20.0033	423.899
4.19	0.624730	24.2310	30.00	20.0584	425.572
4.21	0.624729	24.3258	30.00	20.0584	427.236
4.23	0.612004	24.4380	30.00	19.6498	429.208
4.24	0.609364	24.5160	30.00	19.5651	430.577
4.26	0.615940	24.6100	30.00	19.7762	432.227
4.28	0.622969	24.7046	30.00	20.0019	433.889
4.29	0.624726	24.7998	30.00	20.0583	435.562
4.31	0.624726	24.8945	30.00	20.0583	437.225
4.33	0.624725	24.9894	30.00	20.0583	438.891
4.34	0.624725	25.0630	30.00	20.0583	440.184
4.36	0.624725	25.0836	30.00	20.0583	440.546
4.38	0.624725	25.0991	30.00	20.0583	440.817
4.39	0.624725	25.1134	30.00	20.0583	441.068
4.41	0.624725	25.1249	30.00	20.0583	441.272
4.43	0.624725	25.1349	30.00	20.0583	441.446
4.44	0.624724	25.1438	30.00	20.0582	441.603
4.46	0.624724	25.1521	30.00	20.0582	441.750
4.48	0.624724	25.1593	30.00	20.0582	441.876
4.49	0.624724	25.1680	30.00	20.0582	442.029
4.51	0.624724	25.1757	30.00	20.0582	442.163
4.53	0.624724	25.1820	30.00	20.0582	442.274
4.54	0.624724	25.1883	30.00	20.0582	442.384
4.56	0.624724	25.1947	30.00	20.0582	442.497
4.58	0.624724	25.2003	30.00	20.0582	442.595
4.59	0.624724	25.2058	30.00	20.0582	442.692
4.61	0.624724	25.2107	30.00	20.0582	442.779
4.63	0.624724	25.2157	30.00	20.0582	442.867
4.64	0.624724	25.2204	30.00	20.0582	442.948
4.66	0.624724	25.2270	30.00	20.0582	443.065
4.68	0.624724	25.2408	30.01	20.0582	443.308
4.69	0.624724	25.2467	30.00	20.0582	443.411
4.71	0.624724	25.2529	30.01	20.0582	443.519
4.73	0.624724	25.2606	30.01	20.0582	443.655
4.74	0.624724	25.2828	30.01	20.0582	444.044
4.76	0.624724	25.2918	30.01	20.0582	444.203
4.78	0.624724	25.3028	30.01	20.0582	444.396
4.79	0.624724	25.3111	30.01	20.0582	444.542
4.81	0.624724	25.3174	30.01	20.0582	444.652
4.83	0.624723	25.3223	30.01	20.0582	444.738
4.84	0.624723	25.3267	30.01	20.0582	444.815
4.86	0.624723	25.3308	30.01	20.0582	444.887
4.88	0.624723	25.3347	30.01	20.0582	444.956
4.89	0.624723	25.3392	30.01	20.0582	445.036
4.91	0.624723	25.3424	30.01	20.0582	445.092
4.93	0.624723	25.3459	30.01	20.0582	445.152
4.94	0.624723	25.3492	30.01	20.0582	445.211
4.96	0.624723	25.3526	30.01	20.0582	445.270
4.98	0.624723	25.3561	30.01	20.0582	445.331
4.99	0.624723	25.3598	30.01	20.0582	445.396
5.01	0.624723	25.3633	30.01	20.0582	445.458
5.03	0.624723	25.3665	30.01	20.0582	445.515
5.04	0.624723	25.3696	30.01	20.0582	445.570
5.06	0.624723	25.3727	30.02	20.0582	445.624
5.08	0.624723	25.3755	30.02	20.0582	445.673
5.09	0.624723	25.3783	30.02	20.0582	445.722
5.11	0.624723	25.3810	30.02	20.0582	445.769
5.13	0.624723	25.3834	30.02	20.0582	445.811
5.14	0.624723	25.3859	30.02	20.0582	445.855
5.16	0.624723	25.3885	30.02	20.0582	445.900
5.18	0.624723	25.3910	30.02	20.0582	445.945
5.19	0.624723	25.3932	30.02	20.0582	445.984
5.21	0.624723	25.3954	30.02	20.0582	446.023
5.23	0.624723	25.3976	30.02	20.0582	446.061
5.24	0.624723	25.4003	30.02	20.0582	446.107
5.26	0.624723	25.4022	30.02	20.0582	446.142
5.28	0.624723	25.4044	30.02	20.0582	446.180
5.29	0.624723	25.4068	30.02	20.0582	446.222
5.31	0.624723	25.4087	30.02	20.0582	446.256
5.33	0.624723	25.4107	30.02	20.0582	446.291
5.34	0.624723	25.4128	30.02	20.0582	446.328
5.36	0.624723	25.4151	30.02	20.0582	446.368
5.38	0.624723	25.4170	30.03	20.0582	446.401
5.39	0.624723	25.4193	30.03	20.0582	446.441
5.41	0.624723	25.4210	30.03	20.0582	446.471
5.43	0.624723	25.4229	30.03	20.0582	446.504
5.44	0.624723	25.4249	30.03	20.0582	446.540
5.46	0.624723	25.4265	30.03	20.0582	446.568
5.48	0.624723	25.4289	30.03	20.0582	446.610
5.49	0.624723	25.4302	30.03	20.0582	446.634
5.51	0.624723	25.4322	30.03	20.0582	446.669
5.53	0.624723	25.4342	30.03	20.0582	446.704
5.54	0.624723	25.4356	30.03	20.0582	446.728
5.56	0.624723	25.4380	30.03	20.0582	446.771
5.58	0.624723	25.4398	30.03	20.0582	446.801
5.59	0.624723	25.4413	30.03	20.0582	446.829
5.61	0.624723	25.4435	30.03	20.0582	446.867
5.63	0.624723	25.4449	30.04	20.0582	446.891
5.64	0.624723	25.4471	30.04	20.0582	446.929
5.66	0.624723	25.4483	30.04	20.0582	446.951
5.68	0.624723	25.4504	30.04	20.0582	446.988
5.69	0.624723	25.4516	30.04	20.0582	447.010
5.71	0.624723	25.4537	30.04	20.0582	447.045
5.73	0.624723	25.4550	30.04	20.0582	447.069
5.74	0.624723	25.4568	30.04	20.0582	447.101
5.76	0.624723	25.4583	30.04	20.0582	447.126
5.78	0.624723	25.4600	30.04	20.0582	447.156
5.79	0.624723	25.4615	30.04	20.0582	447.183
5.81	0.624723	25.4631	30.04	20.0582	447.211
5.83	0.624723	25.4645	30.04	20.0582	447.236
5.84	0.624723	25.4662	30.04	20.0582	447.266
5.86	0.624723	25.4675	30.04	20.0582	447.288
5.88	0.624723	25.4693	30.05	20.0582	447.319
5.89	0.624723	25.4705	30.05	20.0582	447.341
5.91	0.624723	25.4723	30.05	20.0582	447.372
5.93	0.624723	25.4734	30.05	20.0582	447.393
5.94	0.624722	25.4753	30.05	20.0582	447.425
5.96	0.624722	25.4763	30.05	20.0582	447.443
5.98	0.624722	25.4785	30.05	20.0582	447.481
5.99	0.624722	25.4794	30.05	20.0582	447.497
6.01	0.624722	25.4813	30.05	20.0582	447.531
6.03	0.624722	25.4828	30.05	20.0582	447.557
6.04	0.624722	25.4854	30.05	20.0582	447.603
6.06	0.624722	25.4916	30.05	20.0582	447.711
6.08	0.624722	25.4983	30.06	20.0582	447.830
6.09	0.624722	25.5003	30.06	20.0582	447.864
6.11	0.624722	25.5025	30.06	20.0582	447.904
6.13	0.624722	25.5039	30.06	20.0582	447.928
6.14	0.624722	25.5061	30.06	20.0582	447.966
6.16	0.624722	25.5084	30.06	20.0582	448.007
6.18	0.624722	25.5099	30.06	20.0582	448.034
6.19	0.624722	25.5120	30.06	20.0582	448.071
6.21	0.624722	25.5138	30.06	20.0582	448.101
6.23	0.624722	25.5158	30.06	20.0582	448.137
6.24	0.624722	25.5178	30.06	20.0582	448.172
6.26	0.624722	25.5192	30.06	20.0582	448.195
6.28	0.624722	25.5210	30.07	20.0582	448.229
6.29	0.624722	25.5222	30.07	20.0582	448.248
6.31	0.624722	25.5240	30.07	20.0582	448.281
6.33	0.624722	25.5252	30.07	20.0582	448.301
6.34	0.624722	25.5268	30.07	20.0582	448.331
6.36	0.624722	25.5282	30.07	20.0582	448.355
6.38	0.624722	25.5295	30.07	20.0582	448.377
6.39	0.624722	25.5312	30.07	20.0582	448.406
6.41	0.624722	25.5322	30.07	20.0582	448.425
6.43	0.624722	25.5342	30.07	20.0582	448.460
6.44	0.624722	25.5350	30.07	20.0582	448.474
6.46	0.624722	25.5370	30.07	20.0582	448.509
6.48	0.624722	25.5378	30.08	20.0582	448.523
6.49	0.624722	25.5396	30.08	20.0582	448.555
6.51	0.624722	25.5406	30.08	20.0582	448.573
6.53	0.624722	25.5420	30.08	20.0582	448.597
6.54	0.624722	25.5436	30.08	20.0582	448.624
6.56	0.624722	25.5444	30.08	20.0582	448.639
6.58	0.624722	25.5464	30.08	20.0582	448.675
6.59	0.624722	25.5471	30.08	20.0582	448.687
6.61	0.624722	25.5488	30.08	20.0582	448.716
6.63	0.624722	25.5500	30.08	20.0582	448.737
6.64	0.624722	25.5510	30.08	20.0582	448.754
6.66	0.624722	25.5527	30.08	20.0582	448.784
6.68	0.624722	25.5533	30.09	20.0582	448.795
6.69	0.624722	25.5550	30.09	20.0582	448.825
6.71	0.624722	25.5560	30.09	20.0582	448.843
6.73	0.624722	25.5573	30.09	20.0582	448.866
6.74	0.624722	25.5589	30.09	20.0582	448.893
6.76	0.624722	25.5597	30.09	20.0582	448.908
6.78	0.624722	25.5613	30.09	20.0582	448.936
6.79	0.624722	25.5624	30.09	20.0582	448.954
6.81	0.624722	25.5633	30.09	20.0582	448.971
6.83	0.624722	25.5651	30.09	20.0582	449.002
6.84	0.624722	25.5657	30.09	20.0582	449.013
6.86	0.624722	25.5671	30.10	20.0582	449.038
6.88	0.624722	25.5685	30.10	20.0582	449.061
6.89	0.624722	25.5690	30.10	20.0582	449.071
6.91	0.624722	25.5706	30.10	20.0582	449.098
6.93	0.624722	25.5717	30.10	20.0582	449.119

