Filename	10172024_PEGDA_PEGMEA_0_Aerosil380_20_LITFSI-b
Instrument name	DMA0850-00515
Operator	
rundate	10/7/2024
Sample name	mechanical test - PEGDA:PEGMEA no aer380 20percent LITFSI
Geometry name	Compression Clamp
Procedure name	DMA Conditioning Preload
	DMA Conditioning Temperature
	Strain Ramp Test
proceduresegments	Strain Ramp Test
[step]
Strain Ramp - 1
Step time	Stress	Strain	Temperature	Force	Displacement
min	MPa	%	°C	N	µm
0.01	1.02033e-6	1.32178	30.30	1.35656e-4	19.9487
0.03	2.45021e-6	1.38916	30.31	3.25764e-4	20.9657
0.04	3.69751e-6	1.45655	30.32	4.91595e-4	21.9828
0.06	4.79964e-6	1.52395	30.32	6.38128e-4	23.0000
0.08	6.46967e-6	1.59135	30.31	8.60163e-4	24.0172
0.09	8.43968e-6	1.65875	30.30	1.12208e-3	25.0345
0.11	9.95949e-6	1.72614	30.29	1.32415e-3	26.0516
0.13	1.10750e-5	1.79355	30.27	1.47245e-3	27.0689
0.14	1.17693e-5	1.86095	30.29	1.56477e-3	28.0861
0.16	1.33145e-5	1.92835	30.32	1.77021e-3	29.1033
0.18	1.54314e-5	1.99574	30.33	2.05166e-3	30.1205
0.19	1.65339e-5	2.06314	30.31	2.19823e-3	31.1376
0.21	1.74542e-5	2.13055	30.30	2.32059e-3	32.1550
0.23	1.82798e-5	2.19795	30.29	2.43036e-3	33.1722
0.24	1.95801e-5	2.26534	30.28	2.60323e-3	34.1894
0.26	2.17693e-5	2.33273	30.28	2.89430e-3	35.2065
0.28	2.27837e-5	2.40014	30.29	3.02916e-3	36.2238
0.29	2.37707e-5	2.46754	30.31	3.16039e-3	37.2410
0.31	2.46490e-5	2.53493	30.31	3.27716e-3	38.2581
0.33	2.60792e-5	2.60235	30.30	3.46731e-3	39.2756
0.34	2.80744e-5	2.66974	30.30	3.73258e-3	40.2927
0.36	2.90517e-5	2.73713	30.29	3.86252e-3	41.3098
0.38	3.00382e-5	2.80453	30.28	3.99368e-3	42.3271
0.39	3.07825e-5	2.87194	30.28	4.09264e-3	43.3443
0.41	3.23308e-5	2.93933	30.28	4.29848e-3	44.3614
0.43	3.42545e-5	3.00673	30.29	4.55425e-3	45.3787
0.44	3.52655e-5	3.07414	30.30	4.68867e-3	46.3960
0.46	3.63854e-5	3.14153	30.30	4.83756e-3	47.4132
0.48	3.71765e-5	3.20892	30.30	4.94274e-3	48.4302
0.49	3.86513e-5	3.27633	30.29	5.13881e-3	49.4476
0.51	4.07437e-5	3.34373	30.29	5.41701e-3	50.4648
0.53	4.18417e-5	3.41112	30.28	5.56299e-3	51.4819
0.54	4.27616e-5	3.47853	30.28	5.68530e-3	52.4992
0.56	4.35271e-5	3.54593	30.29	5.78707e-3	53.5165
0.58	4.51155e-5	3.61333	30.30	5.99826e-3	54.5336
0.59	4.69748e-5	3.68072	30.30	6.24546e-3	55.5507
0.61	4.80922e-5	3.74812	30.30	6.39401e-3	56.5680
0.63	4.91088e-5	3.81552	30.29	6.52918e-3	57.5853
0.64	4.99219e-5	3.88292	30.29	6.63728e-3	58.6025
0.66	5.17520e-5	3.95032	30.29	6.88060e-3	59.6197
0.68	5.37325e-5	4.01771	30.29	7.14392e-3	60.6368
0.69	5.46783e-5	4.08512	30.30	7.26966e-3	61.6541
0.71	5.58108e-5	4.15252	30.30	7.42022e-3	62.6714
0.73	5.66965e-5	4.21992	30.30	7.53798e-3	63.6886
0.74	5.83957e-5	4.28732	30.30	7.76389e-3	64.7058
0.76	6.05660e-5	4.35471	30.30	8.05244e-3	65.7229
0.78	6.17846e-5	4.42211	30.30	8.21447e-3	66.7401
0.79	6.28276e-5	4.48952	30.30	8.35313e-3	67.7575
0.81	6.37246e-5	4.55692	30.30	8.47239e-3	68.7748
0.83	6.55264e-5	4.62431	30.30	8.71195e-3	69.7918
0.84	6.75906e-5	4.69172	30.30	8.98639e-3	70.8091
0.86	6.87548e-5	4.75910	30.30	9.14117e-3	71.8261
0.88	6.98084e-5	4.82649	30.30	9.28125e-3	72.8432
0.89	7.08227e-5	4.89390	30.30	9.41611e-3	73.8604
0.91	7.25884e-5	4.96132	30.30	9.65086e-3	74.8780
0.93	7.47814e-5	5.02872	30.30	9.94243e-3	75.8953
0.94	7.59806e-5	5.09609	30.30	0.0101019	76.9121
0.96	7.71858e-5	5.16351	30.30	0.0102621	77.9296
0.98	7.81175e-5	5.23090	30.30	0.0103860	78.9466
0.99	8.01482e-5	5.29830	30.30	0.0106560	79.9639
1.01	8.22568e-5	5.36570	30.30	0.0109363	80.9811
1.03	8.33556e-5	5.43312	30.30	0.0110824	81.9986
1.04	8.46504e-5	5.50049	30.30	0.0112546	83.0155
1.06	8.56663e-5	5.56791	30.30	0.0113896	84.0329
1.08	8.74480e-5	5.63529	30.29	0.0116265	85.0499
1.09	8.96065e-5	5.70270	30.29	0.0119135	86.0672
1.11	9.09363e-5	5.77009	30.29	0.0120903	87.0843
1.13	9.21357e-5	5.83750	30.29	0.0122497	88.1016
1.14	9.31941e-5	5.90490	30.29	0.0123905	89.1189
1.16	9.50965e-5	5.97230	30.29	0.0126434	90.1362
1.18	9.72347e-5	6.03970	30.28	0.0129277	91.1534
1.19	9.84077e-5	6.10710	30.28	0.0130836	92.1706
1.21	9.99520e-5	6.17449	30.28	0.0132889	93.1877
1.23	1.00955e-4	6.24190	30.28	0.0134223	94.2050
1.24	1.03132e-4	6.30928	30.28	0.0137117	95.2219
1.26	1.04947e-4	6.37668	30.28	0.0139530	96.2392
1.28	1.06556e-4	6.44407	30.27	0.0141669	97.2563
1.29	1.07570e-4	6.51149	30.27	0.0143018	98.2738
1.31	1.08698e-4	6.57888	30.27	0.0144517	99.2908
1.33	1.10809e-4	6.64628	30.27	0.0147325	100.308
1.34	1.12917e-4	6.71369	30.27	0.0150127	101.325
1.36	1.14250e-4	6.78107	30.26	0.0151899	102.342
1.38	1.15499e-4	6.84847	30.26	0.0153559	103.360
1.39	1.16616e-4	6.91588	30.26	0.0155045	104.377
1.41	1.19162e-4	6.98328	30.26	0.0158430	105.394
1.43	1.20875e-4	7.05068	30.26	0.0160708	106.411
1.44	1.22399e-4	7.11808	30.25	0.0162733	107.429
1.46	1.23776e-4	7.18547	30.25	0.0164565	108.446
1.48	1.25047e-4	7.25287	30.25	0.0166254	109.463
1.49	1.27147e-4	7.32029	30.25	0.0169046	110.480
1.51	1.29119e-4	7.38769	30.25	0.0171668	111.498
1.53	1.30562e-4	7.45508	30.25	0.0173587	112.515
1.54	1.31938e-4	7.52248	30.24	0.0175416	113.532
1.56	1.32860e-4	7.58988	30.24	0.0176641	114.549
1.58	1.35440e-4	7.65726	30.24	0.0180072	115.566
1.59	1.37450e-4	7.72466	30.23	0.0182744	116.583
1.61	1.38794e-4	7.79206	30.23	0.0184532	117.601
1.63	1.40040e-4	7.85947	30.23	0.0186188	118.618
1.64	1.41155e-4	7.92686	30.23	0.0187671	119.635
1.66	1.43612e-4	7.99427	30.23	0.0190937	120.652
1.68	1.45651e-4	8.06168	30.22	0.0193647	121.670
1.69	1.47316e-4	8.12907	30.22	0.0195862	122.687
1.71	1.48827e-4	8.19647	30.22	0.0197871	123.704
1.73	1.50185e-4	8.26387	30.22	0.0199675	124.721
1.74	1.52984e-4	8.33128	30.21	0.0203397	125.739
1.76	1.55077e-4	8.39868	30.21	0.0206180	126.756
1.78	1.56877e-4	8.46609	30.21	0.0208573	127.773
1.79	1.58669e-4	8.53346	30.21	0.0210956	128.790
1.81	1.59983e-4	8.60088	30.20	0.0212703	129.808
1.83	1.63129e-4	8.66825	30.20	0.0216885	130.824
1.84	1.65340e-4	8.73565	30.20	0.0219824	131.842
1.86	1.67125e-4	8.80308	30.20	0.0222198	132.859
1.88	1.69052e-4	8.87044	30.19	0.0224759	133.876
1.89	1.70833e-4	8.93787	30.19	0.0227127	134.894
1.91	1.73940e-4	9.00524	30.19	0.0231259	135.910
1.93	1.76409e-4	9.07268	30.19	0.0234541	136.928
1.94	1.78546e-4	9.14004	30.18	0.0237383	137.945
1.96	1.80424e-4	9.20744	30.18	0.0239879	138.962
1.98	1.82065e-4	9.27484	30.18	0.0242061	139.979
1.99	1.85220e-4	9.34224	30.18	0.0246256	140.997
2.01	1.87949e-4	9.40966	30.17	0.0249885	142.014
2.03	1.90214e-4	9.47702	30.17	0.0252896	143.031
2.04	1.92194e-4	9.54444	30.17	0.0255528	144.048
2.06	1.93721e-4	9.61186	30.17	0.0257558	145.066
2.08	1.96993e-4	9.67923	30.16	0.0261909	146.082
2.09	1.99287e-4	9.74667	30.16	0.0264959	147.100
2.11	2.01517e-4	9.81401	30.16	0.0267923	148.117
2.13	2.03638e-4	9.88144	30.16	0.0270744	149.134
2.14	2.05967e-4	9.94885	30.15	0.0273840	150.152
2.16	2.09273e-4	10.0163	30.15	0.0278236	151.169
2.18	2.11781e-4	10.0836	30.15	0.0281570	152.186
2.19	2.13957e-4	10.1510	30.14	0.0284462	153.203
2.21	2.15844e-4	10.2185	30.14	0.0286972	154.221
2.23	2.17550e-4	10.2858	30.14	0.0289240	155.237
2.24	2.19074e-4	10.3532	30.14	0.0291266	156.255
2.26	2.16564e-4	10.4207	30.14	0.0287929	157.272
2.28	2.17139e-4	10.4880	30.14	0.0288693	158.289
2.29	2.18229e-4	10.5555	30.13	0.0290142	159.307
2.31	2.19873e-4	10.6228	30.13	0.0292329	160.323
2.33	2.23100e-4	10.6903	30.13	0.0296618	161.342
2.34	2.25758e-4	10.7576	30.13	0.0300153	162.358
2.36	2.28128e-4	10.8250	30.12	0.0303303	163.375
2.38	2.30243e-4	10.8924	30.12	0.0306115	164.392
2.39	2.32379e-4	10.9598	30.12	0.0308955	165.410
2.41	2.35688e-4	11.0272	30.12	0.0313355	166.427
2.43	2.38457e-4	11.0946	30.11	0.0317036	167.444
2.44	2.40500e-4	11.1620	30.11	0.0319753	168.461
2.46	2.42828e-4	11.2295	30.11	0.0322848	169.479
2.48	2.45097e-4	11.2968	30.11	0.0325865	170.496
2.49	2.48758e-4	11.3642	30.10	0.0330732	171.513
2.51	2.51694e-4	11.4316	30.10	0.0334636	172.530
2.53	2.54121e-4	11.4990	30.10	0.0337862	173.547
2.54	2.56499e-4	11.5664	30.10	0.0341024	174.565
2.56	2.58760e-4	11.6338	30.09	0.0344030	175.581
2.58	2.62434e-4	11.7012	30.09	0.0348915	176.599
2.59	2.64137e-4	11.7686	30.09	0.0351178	177.616
2.61	2.64681e-4	11.8360	30.09	0.0351902	178.633
2.63	2.65040e-4	11.9034	30.09	0.0352379	179.651
2.64	2.65689e-4	11.9708	30.08	0.0353242	180.668
2.66	2.68020e-4	12.0382	30.08	0.0356341	181.685
2.68	2.69270e-4	12.1056	30.08	0.0358003	182.703
2.69	2.70984e-4	12.1730	30.08	0.0360281	183.720
2.71	2.73586e-4	12.2404	30.08	0.0363741	184.737
2.73	2.76164e-4	12.3078	30.08	0.0367168	185.754
2.74	2.80521e-4	12.3752	30.07	0.0372961	186.771
2.76	2.83744e-4	12.4426	30.07	0.0377246	187.789
2.78	2.86689e-4	12.5100	30.07	0.0381163	188.806
2.79	2.89672e-4	12.5774	30.07	0.0385128	189.823
2.81	2.92389e-4	12.6448	30.07	0.0388741	190.840
2.83	2.96664e-4	12.7122	30.06	0.0394424	191.858
2.84	3.00154e-4	12.7795	30.06	0.0399064	192.874
2.86	3.02821e-4	12.8470	30.06	0.0402611	193.892
2.88	3.05612e-4	12.9144	30.06	0.0406321	194.908
2.89	3.08193e-4	12.9818	30.06	0.0409752	195.926
2.91	3.12191e-4	13.0492	30.06	0.0415069	196.943
2.93	3.15554e-4	13.1166	30.05	0.0419540	197.960
2.94	3.17874e-4	13.1840	30.05	0.0422624	198.978
2.96	3.18820e-4	13.2514	30.05	0.0423881	199.995
2.98	3.12704e-4	13.3189	30.05	0.0415750	201.013
2.99	3.13242e-4	13.3862	30.05	0.0416465	202.029
3.01	3.16587e-4	13.4536	30.04	0.0420913	203.047
3.03	3.19885e-4	13.5210	30.04	0.0425298	204.064
3.04	3.23375e-4	13.5884	30.04	0.0429937	205.081
3.06	3.27301e-4	13.6558	30.04	0.0435157	206.098
3.08	3.32476e-4	13.7232	30.04	0.0442038	207.115
3.09	3.36764e-4	13.7906	30.04	0.0447738	208.132
3.11	3.40741e-4	13.8580	30.04	0.0453026	209.150
3.13	3.44698e-4	13.9254	30.04	0.0458287	210.167
3.14	3.48723e-4	13.9928	30.04	0.0463639	211.184
3.16	3.54243e-4	14.0602	30.04	0.0470978	212.202
3.18	3.59357e-4	14.1276	30.03	0.0477777	213.219
3.19	3.64035e-4	14.1950	30.03	0.0483996	214.236
3.21	3.68384e-4	14.2624	30.03	0.0489779	215.254
3.23	3.73224e-4	14.3298	30.03	0.0496214	216.270
3.24	3.79068e-4	14.3972	30.03	0.0503983	217.287
3.26	3.84147e-4	14.4646	30.03	0.0510736	218.305
3.28	3.89379e-4	14.5320	30.02	0.0517691	219.322
3.29	3.94818e-4	14.5994	30.02	0.0524924	220.340
3.31	4.00797e-4	14.6668	30.02	0.0532873	221.356
3.33	4.08171e-4	14.7342	30.02	0.0542676	222.373
3.34	4.14558e-4	14.8015	30.02	0.0551169	223.390
3.36	4.21201e-4	14.8690	30.02	0.0560000	224.408
3.38	4.27876e-4	14.9363	30.02	0.0568875	225.425
3.39	4.34750e-4	15.0038	30.02	0.0578015	226.443
3.41	4.42858e-4	15.0711	30.02	0.0588794	227.459
3.43	4.50926e-4	15.1386	30.02	0.0599520	228.477
3.44	4.59082e-4	15.2060	30.02	0.0610364	229.494
3.46	4.67970e-4	15.2734	30.01	0.0622182	230.511
3.48	4.76636e-4	15.3408	30.01	0.0633704	231.529
3.49	4.87402e-4	15.4082	30.01	0.0648017	232.546
3.51	4.97627e-4	15.4756	30.01	0.0661611	233.563
3.53	5.08158e-4	15.5429	30.01	0.0675613	234.579
3.54	5.19243e-4	15.6103	30.01	0.0690350	235.597
3.56	5.30836e-4	15.6778	30.01	0.0705763	236.614
3.58	5.44060e-4	15.7451	30.01	0.0723346	237.631
3.59	5.57197e-4	15.8125	30.01	0.0740812	238.648
3.61	5.70376e-4	15.8799	30.01	0.0758334	239.666
3.63	5.84075e-4	15.9473	30.01	0.0776546	240.683
3.64	5.98890e-4	16.0147	30.01	0.0796244	241.700
3.66	6.15606e-4	16.0822	30.01	0.0818469	242.718
3.68	6.31407e-4	16.1495	30.01	0.0839476	243.735
3.69	6.48239e-4	16.2169	30.00	0.0861855	244.752
3.71	6.65588e-4	16.2843	30.00	0.0884921	245.769
3.73	6.83646e-4	16.3517	30.00	0.0908929	246.786
3.74	7.02911e-4	16.4191	30.00	0.0934543	247.804
3.76	7.21416e-4	16.4865	30.00	0.0959146	248.821
3.78	7.40251e-4	16.5538	30.00	0.0984188	249.836
3.79	7.59629e-4	16.6213	30.00	0.100995	250.854
3.81	7.79614e-4	16.6887	30.00	0.103652	251.872
3.83	8.01746e-4	16.7560	30.00	0.106595	252.887
3.84	8.23589e-4	16.8234	30.00	0.109499	253.905
3.86	8.45519e-4	16.8908	30.00	0.112414	254.922
3.88	8.67882e-4	16.9583	30.00	0.115388	255.941
3.89	8.91357e-4	17.0255	30.00	0.118509	256.956
3.91	9.16125e-4	17.0929	30.00	0.121802	257.973
3.93	9.40498e-4	17.1605	30.00	0.125042	258.992
3.94	9.65175e-4	17.2279	30.00	0.128323	260.010
3.96	9.90451e-4	17.2952	30.00	0.131684	261.026
3.98	1.01645e-3	17.3629	30.00	0.135140	262.047
3.99	1.04404e-3	17.4300	30.00	0.138808	263.061
4.01	1.07152e-3	17.4975	30.00	0.142462	264.079
4.03	1.09937e-3	17.5649	30.00	0.146165	265.096
4.04	1.12763e-3	17.6324	30.00	0.149922	266.115
4.06	1.15678e-3	17.6997	29.99	0.153798	267.130
4.08	1.18759e-3	17.7671	29.99	0.157895	268.148
4.09	1.21867e-3	17.8345	29.99	0.162026	269.164
4.11	1.25008e-3	17.9018	30.00	0.166202	270.181
4.13	1.28214e-3	17.9692	29.99	0.170465	271.198
4.14	1.31533e-3	18.0367	29.99	0.174878	272.216
4.16	1.35067e-3	18.1042	30.00	0.179576	273.235
4.18	1.38578e-3	18.1714	29.99	0.184244	274.249
4.19	1.42070e-3	18.2388	29.99	0.188887	275.267
4.21	1.45685e-3	18.3063	29.99	0.193693	276.285
4.23	1.49429e-3	18.3736	29.99	0.198671	277.300
4.24	1.53325e-3	18.4410	29.99	0.203850	278.318
4.26	1.57172e-3	18.5084	29.99	0.208965	279.336
4.28	1.61131e-3	18.5759	29.99	0.214228	280.354
4.29	1.65155e-3	18.6431	29.99	0.219578	281.369
4.31	1.69269e-3	18.7107	29.99	0.225048	282.388
4.33	1.73498e-3	18.7780	29.99	0.230671	283.405
4.34	1.77727e-3	18.8455	29.99	0.236294	284.423
4.36	1.82080e-3	18.9127	29.99	0.242081	285.438
4.38	1.86438e-3	18.9802	29.99	0.247876	286.457
4.39	1.90861e-3	19.0477	29.99	0.253756	287.474
4.41	1.95533e-3	19.1150	29.99	0.259968	288.491
4.43	2.00241e-3	19.1823	29.99	0.266227	289.507
4.44	2.04978e-3	19.2498	29.99	0.272525	290.525
4.46	2.09726e-3	19.3173	29.99	0.278838	291.544
4.48	2.14687e-3	19.3845	29.99	0.285433	292.558
4.49	2.19828e-3	19.4521	29.99	0.292269	293.578
4.51	2.24936e-3	19.5193	29.99	0.299060	294.592
4.53	2.30075e-3	19.5868	29.99	0.305892	295.612
4.54	2.35310e-3	19.6540	29.99	0.312852	296.626
4.56	2.40665e-3	19.7217	29.99	0.319972	297.647
4.58	2.46143e-3	19.7890	29.99	0.327255	298.663
4.59	2.51596e-3	19.8565	29.99	0.334505	299.681
4.61	2.57084e-3	19.9238	29.99	0.341802	300.697
4.63	2.62803e-3	19.9913	29.99	0.349405	301.715
4.64	2.68673e-3	20.0585	29.99	0.357209	302.730
4.66	2.74738e-3	20.1260	29.99	0.365273	303.749
4.68	2.80885e-3	20.1934	29.99	0.373446	304.766
4.69	2.87204e-3	20.2608	29.99	0.381847	305.783
4.71	2.93639e-3	20.3282	29.99	0.390403	306.800
4.73	3.00286e-3	20.3956	29.99	0.399241	307.817
4.74	3.07162e-3	20.4629	29.99	0.408382	308.834
4.76	3.14034e-3	20.5305	29.99	0.417518	309.853
4.78	3.20973e-3	20.5977	29.99	0.426744	310.867
4.79	3.28090e-3	20.6651	29.99	0.436207	311.886
4.81	3.35410e-3	20.7326	29.99	0.445939	312.904
4.83	3.42818e-3	20.7999	29.99	0.455787	313.920
4.84	3.50253e-3	20.8673	29.99	0.465672	314.937
4.86	3.57906e-3	20.9346	29.99	0.475847	315.953
4.88	3.65528e-3	21.0022	29.99	0.485981	316.974
4.89	3.73393e-3	21.0695	29.99	0.496439	317.988
4.91	3.81572e-3	21.1368	29.99	0.507312	319.004
4.93	3.89994e-3	21.2044	29.99	0.518510	320.024
4.94	3.98579e-3	21.2716	30.00	0.529924	321.038
4.96	4.07312e-3	21.3391	29.99	0.541535	322.057
4.98	4.16203e-3	21.4065	30.00	0.553355	323.075
4.99	4.25507e-3	21.4739	30.00	0.565726	324.092
5.01	4.34952e-3	21.5414	30.00	0.578283	325.110
5.03	4.44506e-3	21.6086	30.00	0.590985	326.125
5.04	4.54063e-3	21.6760	29.99	0.603692	327.143
5.06	4.64082e-3	21.7436	30.00	0.617012	328.162
5.08	4.74198e-3	21.8109	30.00	0.630461	329.178
5.09	4.84260e-3	21.8782	30.00	0.643839	330.194
5.11	4.94167e-3	21.9457	30.00	0.657012	331.212
5.13	5.03797e-3	22.0131	30.00	0.669815	332.230
5.14	5.13543e-3	22.0805	30.00	0.682773	333.247
5.16	5.23486e-3	22.1479	30.00	0.695992	334.264
5.18	5.33849e-3	22.2152	30.00	0.709769	335.281
5.19	5.44599e-3	22.2826	30.00	0.724061	336.297
5.21	5.55502e-3	22.3500	30.00	0.738558	337.315
5.23	5.66727e-3	22.4175	30.00	0.753483	338.333
5.24	5.78269e-3	22.4848	30.00	0.768827	339.349
5.26	5.90281e-3	22.5522	30.00	0.784798	340.366
5.28	6.02541e-3	22.6196	30.00	0.801097	341.384
5.29	6.14963e-3	22.6870	30.00	0.817614	342.401
5.31	6.27813e-3	22.7543	30.00	0.834698	343.417
5.33	6.40937e-3	22.8216	30.00	0.852147	344.432
5.34	6.54239e-3	22.8892	30.00	0.869832	345.452
5.36	6.67669e-3	22.9565	30.00	0.887687	346.468
5.38	6.81484e-3	23.0239	30.00	0.906055	347.485
5.39	6.95578e-3	23.0913	30.00	0.924794	348.503
5.41	7.09841e-3	23.1587	30.00	0.943756	349.519
5.43	7.24101e-3	23.2261	30.00	0.962715	350.537
5.44	7.38722e-3	23.2934	30.00	0.982154	351.553
5.46	7.53503e-3	23.3608	30.00	1.00181	352.570
5.48	7.68564e-3	23.4283	30.00	1.02183	353.589
5.49	7.83776e-3	23.4956	30.00	1.04206	354.605
5.51	7.99274e-3	23.5630	30.00	1.06266	355.622
5.53	8.14975e-3	23.6305	30.00	1.08354	356.640
5.54	8.30780e-3	23.6979	30.00	1.10455	357.657
5.56	8.46806e-3	23.7653	30.00	1.12586	358.674
5.58	8.63249e-3	23.8328	30.00	1.14772	359.693
5.59	8.79852e-3	23.9001	30.00	1.16979	360.709
5.61	8.96485e-3	23.9675	30.00	1.19191	361.727
5.63	9.13274e-3	24.0349	30.00	1.21423	362.743
5.64	9.30645e-3	24.1023	30.00	1.23732	363.760
5.66	9.48190e-3	24.1696	30.00	1.26065	364.777
5.68	9.65574e-3	24.2370	30.00	1.28376	365.793
5.69	9.83429e-3	24.3044	30.00	1.30750	366.811
5.71	0.0100169	24.3719	30.00	1.33177	367.830
5.73	0.0102037	24.4393	30.00	1.35661	368.846
5.74	0.0103910	24.5066	30.00	1.38151	369.863
5.76	0.0105825	24.5739	30.00	1.40697	370.878
5.78	0.0107782	24.6414	30.00	1.43300	371.897
5.79	0.0109764	24.7088	30.00	1.45935	372.913
5.81	0.0111763	24.7761	30.00	1.48593	373.930
5.83	0.0113819	24.8436	30.00	1.51326	374.948
5.84	0.0115903	24.9109	30.00	1.54097	375.965
5.86	0.0117990	24.9785	30.00	1.56872	376.984
5.88	0.0120077	25.0458	30.00	1.59646	378.000
5.89	0.0122240	25.1132	30.00	1.62522	379.018
5.91	0.0124436	25.1805	30.00	1.65442	380.034
5.93	0.0126639	25.2479	30.00	1.68370	381.050
5.94	0.0128847	25.3153	30.00	1.71306	382.067
5.96	0.0131109	25.3827	30.00	1.74314	383.085
5.98	0.0133418	25.4500	30.01	1.77384	384.101
5.99	0.0135741	25.5175	30.01	1.80472	385.119
6.01	0.0138087	25.5848	30.01	1.83591	386.135
6.03	0.0140484	25.6523	30.01	1.86777	387.154
6.04	0.0142908	25.7196	30.01	1.90000	388.170
6.06	0.0145348	25.7871	30.01	1.93245	389.188
6.08	0.0147822	25.8544	30.01	1.96534	390.204
6.09	0.0150342	25.9219	30.01	1.99884	391.222
6.11	0.0152882	25.9892	30.01	2.03262	392.239
6.13	0.0155419	26.0566	30.01	2.06634	393.256
6.14	0.0158010	26.1240	30.01	2.10080	394.273
6.16	0.0160630	26.1913	30.01	2.13563	395.289
6.18	0.0163265	26.2588	30.01	2.17066	396.307
6.19	0.0165908	26.3261	30.01	2.20580	397.324
6.21	0.0168600	26.3936	30.01	2.24159	398.343
6.23	0.0171340	26.4610	30.01	2.27802	399.360
6.24	0.0174082	26.5283	30.01	2.31448	400.375
6.26	0.0176825	26.5958	30.01	2.35095	401.394
6.28	0.0179629	26.6631	30.01	2.38822	402.410
6.29	0.0182439	26.7306	30.01	2.42559	403.428
6.31	0.0185261	26.7980	30.01	2.46311	404.445
6.33	0.0188107	26.8653	30.01	2.50095	405.461
6.34	0.0191000	26.9327	30.01	2.53941	406.478
6.36	0.0193967	27.0001	30.02	2.57885	407.496
6.38	0.0196930	27.0675	30.01	2.61825	408.513
6.39	0.0199940	27.1351	30.02	2.65827	409.532
6.41	0.0202981	27.2025	30.02	2.69870	410.550
6.43	0.0206039	27.2697	30.02	2.73935	411.564
6.44	0.0209095	27.3370	30.02	2.77998	412.580
6.46	0.0212213	27.4044	30.02	2.82145	413.597
6.48	0.0215403	27.4719	30.02	2.86385	414.616
6.49	0.0218601	27.5393	30.02	2.90637	415.633
6.51	0.0221790	27.6067	30.02	2.94878	416.650
6.53	0.0225047	27.6740	30.02	2.99207	417.667
6.54	0.0228306	27.7415	30.02	3.03540	418.685
6.56	0.0231627	27.8088	30.02	3.07956	419.701
6.58	0.0234962	27.8762	30.02	3.12389	420.718
6.59	0.0238355	27.9437	30.02	3.16900	421.737
6.61	0.0241757	28.0109	30.02	3.21424	422.751
6.63	0.0245150	28.0783	30.02	3.25934	423.768
6.64	0.0248579	28.1458	30.02	3.30494	424.787
6.66	0.0251996	28.2132	30.02	3.35037	425.804
6.68	0.0255338	28.2804	30.02	3.39480	426.819
6.69	0.0258728	28.3480	30.02	3.43987	427.839
6.71	0.0262090	28.4153	30.02	3.48457	428.855
6.73	0.0265606	28.4829	30.02	3.53131	429.874
6.74	0.0269186	28.5502	30.03	3.57891	430.889
6.76	0.0272753	28.6175	30.03	3.62633	431.906
6.78	0.0276345	28.6850	30.03	3.67410	432.925
6.79	0.0279426	28.7529	30.03	3.71506	433.949
6.81	0.0280393	28.8200	30.03	3.72791	434.962
6.83	0.0283828	28.8873	30.03	3.77358	435.978
6.84	0.0287578	28.9545	30.03	3.82344	436.992
6.86	0.0291405	29.0219	30.03	3.87432	438.008
6.88	0.0295231	29.0894	30.03	3.92520	439.027
6.89	0.0299067	29.1567	30.03	3.97620	440.043
6.91	0.0302561	29.2243	30.03	4.02265	441.063
6.93	0.0306127	29.2915	30.03	4.07006	442.078
6.94	0.0310049	29.3589	30.03	4.12220	443.095
6.96	0.0314065	29.4262	30.03	4.17560	444.110
6.98	0.0318159	29.4938	30.03	4.23003	445.131
6.99	0.0322267	29.5611	30.03	4.28465	446.146
7.01	0.0326371	29.6285	30.04	4.33921	447.164
7.03	0.0330558	29.6957	30.04	4.39488	448.179
7.04	0.0334778	29.7631	30.04	4.45098	449.195
7.06	0.0339013	29.8306	30.04	4.50728	450.214
7.08	0.0343242	29.8980	30.04	4.56351	451.232
7.09	0.0347537	29.9654	30.04	4.62062	452.249
7.11	0.0351880	30.0329	30.04	4.67836	453.267
7.13	0.0356229	30.1002	30.04	4.73618	454.284
7.14	0.0360518	30.1675	30.04	4.79320	455.299
7.16	0.0364887	30.2350	30.04	4.85130	456.318
7.18	0.0369343	30.3023	30.04	4.91053	457.334
7.19	0.0373807	30.3698	30.04	4.96989	458.352
7.21	0.0378339	30.4371	30.04	5.03014	459.368
7.23	0.0382903	30.5046	30.04	5.09082	460.386
7.24	0.0387449	30.5719	30.04	5.15126	461.402
7.26	0.0391928	30.6394	30.04	5.21081	462.421
7.28	0.0396083	30.7067	30.05	5.26606	463.437
7.29	0.0400436	30.7742	30.05	5.32392	464.455
7.31	0.0404934	30.8414	30.05	5.38372	465.470
7.33	0.0409460	30.9089	30.05	5.44390	466.489
7.34	0.0414047	30.9763	30.05	5.50489	467.505
7.36	0.0418680	31.0436	30.05	5.56649	468.521
7.38	0.0423275	31.1111	30.05	5.62758	469.539
7.39	0.0426288	31.1796	30.05	5.66764	470.574
7.41	0.0426195	31.2462	30.05	5.66640	471.580
7.43	0.0429777	31.3134	30.05	5.71402	472.593
7.44	0.0434132	31.3807	30.05	5.77193	473.610
7.46	0.0438903	31.4480	30.05	5.83535	474.624
7.48	0.0443767	31.5154	30.05	5.90002	475.642
7.49	0.0448677	31.5828	30.05	5.96530	476.659
7.51	0.0453627	31.6502	30.05	6.03111	477.676
7.53	0.0458649	31.7176	30.06	6.09789	478.694
7.54	0.0463697	31.7849	30.06	6.16501	479.710
7.56	0.0468665	31.8524	30.06	6.23106	480.728
7.58	0.0473653	31.9198	30.06	6.29737	481.745
7.59	0.0478715	31.9869	30.06	6.36467	482.759
7.61	0.0483915	32.0545	30.06	6.43381	483.778
7.63	0.0489094	32.1220	30.06	6.50266	484.797
7.64	0.0494408	32.1893	30.06	6.57331	485.813
7.66	0.0499754	32.2567	30.06	6.64440	486.830
7.68	0.0505102	32.3240	30.06	6.71550	487.846
7.69	0.0510461	32.3915	30.06	6.78674	488.864
7.71	0.0515975	32.4589	30.06	6.86005	489.882
7.73	0.0521502	32.5263	30.07	6.93354	490.898
7.74	0.0526951	32.5937	30.07	7.00599	491.916
7.76	0.0532417	32.6603	30.07	7.07865	492.922
7.78	0.0537597	32.7276	30.07	7.14752	493.937
7.79	0.0542655	32.7951	30.07	7.21477	494.955
7.81	0.0547749	32.8623	30.07	7.28250	495.970
7.83	0.0552910	32.9295	30.07	7.35112	496.984
7.84	0.0558039	32.9972	30.07	7.41930	498.006
7.86	0.0562949	33.0644	30.07	7.48459	499.020
7.88	0.0567369	33.1322	30.07	7.54335	500.043
7.89	0.0569975	33.2000	30.07	7.57800	501.066
7.91	0.0572271	33.2676	30.07	7.60852	502.087
7.93	0.0573639	33.3348	30.07	7.62672	503.101
7.94	0.0574360	33.4035	30.07	7.63631	504.138
7.96	0.0574078	33.4713	30.07	7.63256	505.162
7.98	0.0573801	33.5389	30.08	7.62886	506.181
7.99	0.0571451	33.6061	30.08	7.59762	507.195
8.01	0.0572086	33.6728	30.08	7.60607	508.203
8.03	0.0574641	33.7401	30.08	7.64004	509.217
8.04	0.0577499	33.8073	30.08	7.67804	510.231
8.06	0.0580388	33.8748	30.08	7.71645	511.251
8.08	0.0583754	33.9420	30.08	7.76120	512.266
8.09	0.0587278	34.0099	30.08	7.80806	513.290
8.11	0.0589902	34.0769	30.08	7.84294	514.302
8.13	0.0594191	34.1442	30.08	7.89996	515.317
8.14	0.0599116	34.2114	30.08	7.96544	516.331
8.16	0.0603891	34.2786	30.09	8.02893	517.346
8.18	0.0608995	34.3461	30.09	8.09679	518.363
8.19	0.0614028	34.4133	30.09	8.16371	519.379
8.21	0.0618985	34.4811	30.09	8.22961	520.401
8.23	0.0624778	34.5478	30.09	8.30663	521.408
8.24	0.0630999	34.6155	30.09	8.38933	522.429
8.26	0.0637053	34.6831	30.09	8.46982	523.450
8.28	0.0642683	34.7508	30.09	8.54468	524.472
8.29	0.0646242	34.8178	30.09	8.59200	525.484
8.31	0.0652587	34.8851	30.09	8.67635	526.498
8.33	0.0659368	34.9522	30.09	8.76651	527.511
8.34	0.0666324	35.0198	30.09	8.85899	528.532
8.36	0.0673290	35.0872	30.10	8.95161	529.549
8.38	0.0680356	35.1547	30.10	9.04555	530.567
8.39	0.0687558	35.2220	30.10	9.14131	531.583
8.41	0.0694687	35.2893	30.10	9.23608	532.599
8.43	0.0701838	35.3568	30.10	9.33116	533.618
8.44	0.0709076	35.4241	30.10	9.42740	534.633
8.46	0.0716318	35.4916	30.10	9.52368	535.652
8.48	0.0723693	35.5587	30.10	9.62173	536.665
8.49	0.0731122	35.6262	30.10	9.72050	537.684
8.51	0.0738758	35.6937	30.10	9.82202	538.702
8.53	0.0746452	35.7610	30.10	9.92432	539.719
8.54	0.0754098	35.8285	30.10	10.0260	540.736
8.56	0.0761599	35.8958	30.11	10.1257	541.753
8.58	0.0768941	35.9632	30.11	10.2233	542.769
8.59	0.0776438	36.0301	30.11	10.3230	543.780
8.61	0.0784131	36.0978	30.11	10.4253	544.801
8.63	0.0791972	36.1653	30.11	10.5295	545.820
8.64	0.0799899	36.2326	30.11	10.6349	546.836
8.66	0.0807701	36.3000	30.11	10.7386	547.853
8.68	0.0815377	36.3677	30.11	10.8407	548.874
8.69	0.0822641	36.4353	30.11	10.9373	549.894
8.71	0.0820943	36.5072	30.11	10.9147	550.981
8.73	0.0813212	36.5699	30.11	10.8119	551.926
8.74	0.0820137	36.6374	30.11	10.9040	552.945
8.76	0.0826755	36.7048	30.12	10.9920	553.962
8.78	0.0834034	36.7720	30.12	11.0888	554.976
8.79	0.0837867	36.8409	30.12	11.1397	556.016
8.81	0.0840149	36.9076	30.12	11.1701	557.023
8.83	0.0840700	36.9766	30.12	11.1774	558.064
8.84	0.0839672	37.0435	30.12	11.1637	559.074
8.86	0.0839916	37.1097	30.12	11.1670	560.074
8.88	0.0809530	37.1900	30.12	10.7630	561.285
8.89	0.0789666	37.2446	30.12	10.4989	562.109
8.91	0.0794617	37.3117	30.12	10.5647	563.122
8.93	0.0800172	37.3791	30.12	10.6385	564.139
8.94	0.0805866	37.4463	30.13	10.7142	565.153
8.96	0.0812545	37.5136	30.13	10.8030	566.169
8.98	0.0819659	37.5807	30.13	10.8976	567.182
8.99	0.0827086	37.6484	30.13	10.9964	568.203
9.01	0.0834377	37.7158	30.13	11.0933	569.220
9.03	0.0841594	37.7831	30.13	11.1893	570.236
9.04	0.0845622	37.8514	30.13	11.2428	571.268
9.06	0.0851816	37.9177	30.13	11.3252	572.268
9.08	0.0859532	37.9849	30.13	11.4278	573.282
9.09	0.0867359	38.0526	30.13	11.5318	574.303
9.11	0.0875157	38.1201	30.13	11.6355	575.322
9.13	0.0882741	38.1874	30.13	11.7363	576.338
9.14	0.0890542	38.2548	30.14	11.8400	577.356
9.16	0.0898434	38.3221	30.14	11.9450	578.371
9.18	0.0906153	38.3894	30.14	12.0476	579.387
9.19	0.0914109	38.4570	30.14	12.1534	580.406
9.21	0.0922274	38.5242	30.14	12.2619	581.421
9.23	0.0930391	38.5916	30.14	12.3698	582.439
9.24	0.0938611	38.6591	30.14	12.4791	583.457
9.26	0.0946403	38.7266	30.14	12.5827	584.476
9.28	0.0954085	38.7939	30.15	12.6849	585.492
9.29	0.0961693	38.8613	30.15	12.7860	586.509
9.31	0.0969485	38.9287	30.15	12.8896	587.527
9.33	0.0976888	38.9963	30.15	12.9880	588.546
9.34	0.0983422	39.0639	30.15	13.0749	589.566
9.36	0.0990137	39.1309	30.15	13.1642	590.578
9.38	0.0998045	39.1982	30.15	13.2693	591.594
9.39	0.100608	39.2657	30.15	13.3762	592.612
9.41	0.101408	39.3331	30.15	13.4825	593.629
9.43	0.102247	39.4000	30.15	13.5941	594.638
9.44	0.103096	39.4678	30.15	13.7069	595.662
9.46	0.103918	39.5352	30.16	13.8162	596.680
9.48	0.104753	39.6026	30.16	13.9273	597.696
9.49	0.105599	39.6699	30.16	14.0398	598.713
9.51	0.106466	39.7373	30.16	14.1550	599.730
9.53	0.107401	39.8045	30.16	14.2793	600.745
9.54	0.108339	39.8719	30.16	14.4040	601.762
9.56	0.109248	39.9393	30.16	14.5248	602.779
9.58	0.110161	40.0068	30.16	14.6462	603.798
9.59	0.111064	40.0741	30.16	14.7664	604.813
9.61	0.112011	40.1416	30.16	14.8922	605.831
9.63	0.112957	40.2088	30.16	15.0179	606.846
9.64	0.113879	40.2763	30.17	15.1405	607.865
9.66	0.114751	40.3441	30.17	15.2565	608.887
9.68	0.115379	40.4117	30.17	15.3400	609.908
9.69	0.115943	40.4794	30.17	15.4149	610.930
9.71	0.116476	40.5468	30.17	15.4858	611.946
9.73	0.117215	40.6137	30.17	15.5841	612.957
9.74	0.118119	40.6805	30.17	15.7042	613.965
9.76	0.119084	40.7482	30.17	15.8326	614.987
9.78	0.120070	40.8153	30.17	15.9637	615.999
9.79	0.121080	40.8827	30.17	16.0979	617.017
9.81	0.122039	40.9506	30.17	16.2255	618.041
9.83	0.122693	41.0186	30.18	16.3124	619.067
9.84	0.123401	41.0852	30.18	16.4065	620.073
9.86	0.123018	41.1585	30.18	16.3557	621.179
9.88	0.121576	41.2233	30.18	16.1640	622.158
9.89	0.121714	41.2878	30.18	16.1822	623.130
9.91	0.122572	41.3546	30.18	16.2963	624.139
9.93	0.123524	41.4220	30.18	16.4229	625.156
9.94	0.124572	41.4891	30.18	16.5623	626.168
9.96	0.125736	41.5562	30.18	16.7169	627.182
9.98	0.126946	41.6236	30.18	16.8779	628.199
9.99	0.128156	41.6911	30.19	17.0387	629.217

